#F U:\Beamline I20\I20-2_EDE\Wigglers\xop\83mm-small-wiggler\EDE wiggler\1p1T-300mA-0p12x1p4mrad.dat
#C I20EDE 1.1T 300mA 0.12x1.4mrad
#S 1 File written by xplot on Tue Dec 07 18:23:54 2010
#N 2
#L    Energy [eV]  Flux [ph/s/0.1%bw]
50 1.04398E+013 
100 1.65547E+013 
150 2.16553E+013 
200 2.61763E+013 
250 3.02982E+013 
300 3.41182E+013 
350 3.76963E+013 
400 4.10728E+013 
450 4.42764E+013 
500 4.73289E+013 
550 5.02468E+013 
600 5.30433E+013 
650 5.57294E+013 
700 5.83139E+013 
750 6.08043E+013 
800 6.3207E+013 
850 6.55277E+013 
900 6.77711E+013 
950 6.99415E+013 
1000 7.20426E+013 
1050 7.40779E+013 
1100 7.60504E+013 
1150 7.79628E+013 
1200 7.98178E+013 
1250 8.16174E+013 
1300 8.3364E+013 
1350 8.50594E+013 
1400 8.67055E+013 
1450 8.83039E+013 
1500 8.98561E+013 
1550 9.13638E+013 
1600 9.28282E+013 
1650 9.42506E+013 
1700 9.56324E+013 
1750 9.69746E+013 
1800 9.82783E+013 
1850 9.95446E+013 
1900 1.00774E+014 
1950 1.01969E+014 
2000 1.03129E+014 
2050 1.04255E+014 
2100 1.05348E+014 
2150 1.06409E+014 
2200 1.07439E+014 
2250 1.08438E+014 
2300 1.09408E+014 
2350 1.10348E+014 
2400 1.1126E+014 
2450 1.12143E+014 
2500 1.13E+014 
2550 1.13829E+014 
2600 1.14633E+014 
2650 1.15411E+014 
2700 1.16164E+014 
2750 1.16893E+014 
2800 1.17597E+014 
2850 1.18278E+014 
2900 1.18936E+014 
2950 1.19571E+014 
3000 1.20185E+014 
3050 1.20776E+014 
3100 1.21347E+014 
3150 1.21896E+014 
3200 1.22425E+014 
3250 1.22935E+014 
3300 1.23424E+014 
3350 1.23894E+014 
3400 1.24346E+014 
3450 1.24779E+014 
3500 1.25194E+014 
3550 1.25591E+014 
3600 1.2597E+014 
3650 1.26333E+014 
3700 1.26678E+014 
3750 1.27007E+014 
3800 1.2732E+014 
3850 1.27618E+014 
3900 1.27899E+014 
3950 1.28165E+014 
4000 1.28417E+014 
4050 1.28653E+014 
4100 1.28875E+014 
4150 1.29083E+014 
4200 1.29277E+014 
4250 1.29458E+014 
4300 1.29625E+014 
4350 1.29779E+014 
4400 1.2992E+014 
4450 1.30048E+014 
4500 1.30164E+014 
4550 1.30268E+014 
4600 1.3036E+014 
4650 1.3044E+014 
4700 1.30509E+014 
4750 1.30567E+014 
4800 1.30613E+014 
4850 1.30648E+014 
4900 1.30673E+014 
4950 1.30687E+014 
5000 1.30692E+014 
5050 1.30686E+014 
5100 1.3067E+014 
5150 1.30644E+014 
5200 1.30609E+014 
5250 1.30565E+014 
5300 1.30512E+014 
5350 1.30449E+014 
5400 1.30378E+014 
5450 1.30298E+014 
5500 1.3021E+014 
5550 1.30113E+014 
5600 1.30009E+014 
5650 1.29896E+014 
5700 1.29776E+014 
5750 1.29648E+014 
5800 1.29512E+014 
5850 1.29369E+014 
5900 1.29219E+014 
5950 1.29062E+014 
6000 1.28898E+014 
6050 1.28727E+014 
6100 1.28549E+014 
6150 1.28365E+014 
6200 1.28175E+014 
6250 1.27978E+014 
6300 1.27775E+014 
6350 1.27567E+014 
6400 1.27352E+014 
6450 1.27132E+014 
6500 1.26906E+014 
6550 1.26674E+014 
6600 1.26438E+014 
6650 1.26195E+014 
6700 1.25948E+014 
6750 1.25696E+014 
6800 1.25439E+014 
6850 1.25177E+014 
6900 1.2491E+014 
6950 1.24639E+014 
7000 1.24363E+014 
7050 1.24083E+014 
7100 1.23798E+014 
7150 1.23509E+014 
7200 1.23216E+014 
7250 1.2292E+014 
7300 1.22619E+014 
7350 1.22314E+014 
7400 1.22006E+014 
7450 1.21694E+014 
7500 1.21379E+014 
7550 1.2106E+014 
7600 1.20737E+014 
7650 1.20412E+014 
7700 1.20083E+014 
7750 1.19751E+014 
7800 1.19416E+014 
7850 1.19078E+014 
7900 1.18737E+014 
7950 1.18393E+014 
8000 1.18047E+014 
8050 1.17698E+014 
8100 1.17346E+014 
8150 1.16992E+014 
8200 1.16635E+014 
8250 1.16276E+014 
8300 1.15915E+014 
8350 1.15551E+014 
8400 1.15185E+014 
8450 1.14818E+014 
8500 1.14448E+014 
8550 1.14076E+014 
8600 1.13702E+014 
8650 1.13326E+014 
8700 1.12949E+014 
8750 1.1257E+014 
8800 1.12189E+014 
8850 1.11806E+014 
8900 1.11422E+014 
8950 1.11037E+014 
9000 1.1065E+014 
9050 1.10261E+014 
9100 1.09872E+014 
9150 1.09481E+014 
9200 1.09088E+014 
9250 1.08695E+014 
9300 1.083E+014 
9350 1.07905E+014 
9400 1.07508E+014 
9450 1.0711E+014 
9500 1.06711E+014 
9550 1.06312E+014 
9600 1.05911E+014 
9650 1.0551E+014 
9700 1.05108E+014 
9750 1.04705E+014 
9800 1.04302E+014 
9850 1.03898E+014 
9900 1.03493E+014 
9950 1.03088E+014 
10000 1.02682E+014 
10050 1.02276E+014 
10100 1.01869E+014 
10150 1.01462E+014 
10200 1.01055E+014 
10250 1.00647E+014 
10300 1.00239E+014 
10350 9.98307E+013 
10400 9.94222E+013 
10450 9.90134E+013 
10500 9.86045E+013 
10550 9.81954E+013 
10600 9.77863E+013 
10650 9.73771E+013 
10700 9.69679E+013 
10750 9.65586E+013 
10800 9.61494E+013 
10850 9.57403E+013 
10900 9.53312E+013 
10950 9.49223E+013 
11000 9.45134E+013 
11050 9.41048E+013 
11100 9.36964E+013 
11150 9.32882E+013 
11200 9.28802E+013 
11250 9.24725E+013 
11300 9.20651E+013 
11350 9.16581E+013 
11400 9.12513E+013 
11450 9.0845E+013 
11500 9.04391E+013 
11550 9.00335E+013 
11600 8.96284E+013 
11650 8.92238E+013 
11700 8.88197E+013 
11750 8.8416E+013 
11800 8.80129E+013 
11850 8.76103E+013 
11900 8.72083E+013 
11950 8.68069E+013 
12000 8.64061E+013 
12050 8.60059E+013 
12100 8.56064E+013 
12150 8.52075E+013 
12200 8.48093E+013 
12250 8.44118E+013 
12300 8.4015E+013 
12350 8.36189E+013 
12400 8.32235E+013 
12450 8.2829E+013 
12500 8.24352E+013 
12550 8.20422E+013 
12600 8.165E+013 
12650 8.12586E+013 
12700 8.0868E+013 
12750 8.04783E+013 
12800 8.00895E+013 
12850 7.97015E+013 
12900 7.93145E+013 
12950 7.89283E+013 
13000 7.8543E+013 
13050 7.81587E+013 
13100 7.77753E+013 
13150 7.73929E+013 
13200 7.70114E+013 
13250 7.66309E+013 
13300 7.62513E+013 
13350 7.58728E+013 
13400 7.54953E+013 
13450 7.51188E+013 
13500 7.47433E+013 
13550 7.43688E+013 
13600 7.39954E+013 
13650 7.3623E+013 
13700 7.32517E+013 
13750 7.28815E+013 
13800 7.25123E+013 
13850 7.21443E+013 
13900 7.17773E+013 
13950 7.14114E+013 
14000 7.10467E+013 
14050 7.0683E+013 
14100 7.03205E+013 
14150 6.99591E+013 
14200 6.95988E+013 
14250 6.92397E+013 
14300 6.88817E+013 
14350 6.85249E+013 
14400 6.81693E+013 
14450 6.78148E+013 
14500 6.74615E+013 
14550 6.71094E+013 
14600 6.67584E+013 
14650 6.64087E+013 
14700 6.60601E+013 
14750 6.57128E+013 
14800 6.53666E+013 
14850 6.50216E+013 
14900 6.46779E+013 
14950 6.43354E+013 
15000 6.39941E+013 
15050 6.3654E+013 
15100 6.33152E+013 
15150 6.29775E+013 
15200 6.26412E+013 
15250 6.2306E+013 
15300 6.19721E+013 
15350 6.16394E+013 
15400 6.1308E+013 
15450 6.09778E+013 
15500 6.06489E+013 
15550 6.03212E+013 
15600 5.99948E+013 
15650 5.96696E+013 
15700 5.93457E+013 
15750 5.90231E+013 
15800 5.87017E+013 
15850 5.83816E+013 
15900 5.80627E+013 
15950 5.77452E+013 
16000 5.74288E+013 
16050 5.71138E+013 
16100 5.68E+013 
16150 5.64875E+013 
16200 5.61763E+013 
16250 5.58663E+013 
16300 5.55576E+013 
16350 5.52502E+013 
16400 5.4944E+013 
16450 5.46392E+013 
16500 5.43356E+013 
16550 5.40333E+013 
16600 5.37322E+013 
16650 5.34324E+013 
16700 5.31339E+013 
16750 5.28367E+013 
16800 5.25407E+013 
16850 5.2246E+013 
16900 5.19526E+013 
16950 5.16605E+013 
17000 5.13696E+013 
17050 5.108E+013 
17100 5.07917E+013 
17150 5.05046E+013 
17200 5.02188E+013 
17250 4.99343E+013 
17300 4.9651E+013 
17350 4.9369E+013 
17400 4.90883E+013 
17450 4.88088E+013 
17500 4.85306E+013 
17550 4.82536E+013 
17600 4.79779E+013 
17650 4.77035E+013 
17700 4.74303E+013 
17750 4.71583E+013 
17800 4.68876E+013 
17850 4.66181E+013 
17900 4.63499E+013 
17950 4.6083E+013 
18000 4.58173E+013 
18050 4.55528E+013 
18100 4.52895E+013 
18150 4.50275E+013 
18200 4.47667E+013 
18250 4.45072E+013 
18300 4.42489E+013 
18350 4.39918E+013 
18400 4.37359E+013 
18450 4.34813E+013 
18500 4.32278E+013 
18550 4.29756E+013 
18600 4.27246E+013 
18650 4.24748E+013 
18700 4.22262E+013 
18750 4.19788E+013 
18800 4.17326E+013 
18850 4.14877E+013 
18900 4.12439E+013 
18950 4.10013E+013 
19000 4.07599E+013 
19050 4.05197E+013 
19100 4.02806E+013 
19150 4.00428E+013 
19200 3.98061E+013 
19250 3.95706E+013 
19300 3.93363E+013 
19350 3.91032E+013 
19400 3.88712E+013 
19450 3.86403E+013 
19500 3.84107E+013 
19550 3.81822E+013 
19600 3.79548E+013 
19650 3.77286E+013 
19700 3.75035E+013 
19750 3.72796E+013 
19800 3.70568E+013 
19850 3.68352E+013 
19900 3.66147E+013 
19950 3.63953E+013 
20000 3.6177E+013 
20050 3.59599E+013 
20100 3.57439E+013 
20150 3.5529E+013 
20200 3.53152E+013 
20250 3.51025E+013 
20300 3.48909E+013 
20350 3.46804E+013 
20400 3.4471E+013 
20450 3.42627E+013 
20500 3.40555E+013 
20550 3.38494E+013 
20600 3.36444E+013 
20650 3.34404E+013 
20700 3.32375E+013 
20750 3.30357E+013 
20800 3.2835E+013 
20850 3.26353E+013 
20900 3.24367E+013 
20950 3.22391E+013 
21000 3.20426E+013 
21050 3.18471E+013 
21100 3.16527E+013 
21150 3.14593E+013 
21200 3.12669E+013 
21250 3.10756E+013 
21300 3.08853E+013 
21350 3.06961E+013 
21400 3.05078E+013 
21450 3.03206E+013 
21500 3.01344E+013 
21550 2.99492E+013 
21600 2.97649E+013 
21650 2.95818E+013 
21700 2.93996E+013 
21750 2.92183E+013 
21800 2.90381E+013 
21850 2.88589E+013 
21900 2.86806E+013 
21950 2.85033E+013 
22000 2.8327E+013 
22050 2.81517E+013 
22100 2.79773E+013 
22150 2.78039E+013 
22200 2.76315E+013 
22250 2.746E+013 
22300 2.72894E+013 
22350 2.71198E+013 
22400 2.69512E+013 
22450 2.67835E+013 
22500 2.66167E+013 
22550 2.64508E+013 
22600 2.62859E+013 
22650 2.61219E+013 
22700 2.59588E+013 
22750 2.57966E+013 
22800 2.56353E+013 
22850 2.5475E+013 
22900 2.53155E+013 
22950 2.5157E+013 
23000 2.49993E+013 
23050 2.48426E+013 
23100 2.46867E+013 
23150 2.45317E+013 
23200 2.43775E+013 
23250 2.42243E+013 
23300 2.40719E+013 
23350 2.39204E+013 
23400 2.37698E+013 
23450 2.362E+013 
23500 2.3471E+013 
23550 2.3323E+013 
23600 2.31757E+013 
23650 2.30293E+013 
23700 2.28838E+013 
23750 2.27391E+013 
23800 2.25952E+013 
23850 2.24521E+013 
23900 2.23099E+013 
23950 2.21685E+013 
24000 2.20279E+013 
24050 2.18881E+013 
24100 2.17492E+013 
24150 2.1611E+013 
24200 2.14736E+013 
24250 2.13371E+013 
24300 2.12013E+013 
24350 2.10663E+013 
24400 2.09321E+013 
24450 2.07987E+013 
24500 2.06661E+013 
24550 2.05342E+013 
24600 2.04031E+013 
24650 2.02728E+013 
24700 2.01433E+013 
24750 2.00145E+013 
24800 1.98864E+013 
24850 1.97592E+013 
24900 1.96326E+013 
24950 1.95068E+013 
25000 1.93818E+013 
25050 1.92575E+013 
25100 1.91339E+013 
25150 1.9011E+013 
25200 1.88889E+013 
25250 1.87675E+013 
25300 1.86469E+013 
25350 1.85269E+013 
25400 1.84076E+013 
25450 1.82891E+013 
25500 1.81713E+013 
25550 1.80541E+013 
25600 1.79377E+013 
25650 1.7822E+013 
25700 1.77069E+013 
25750 1.75926E+013 
25800 1.74789E+013 
25850 1.73659E+013 
25900 1.72536E+013 
25950 1.71419E+013 
26000 1.7031E+013 
26050 1.69207E+013 
26100 1.6811E+013 
26150 1.6702E+013 
26200 1.65937E+013 
26250 1.6486E+013 
26300 1.6379E+013 
26350 1.62726E+013 
26400 1.61669E+013 
26450 1.60618E+013 
26500 1.59574E+013 
26550 1.58535E+013 
26600 1.57503E+013 
26650 1.56478E+013 
26700 1.55458E+013 
26750 1.54445E+013 
26800 1.53438E+013 
26850 1.52437E+013 
26900 1.51442E+013 
26950 1.50453E+013 
27000 1.4947E+013 
27050 1.48494E+013 
27100 1.47523E+013 
27150 1.46558E+013 
27200 1.45599E+013 
27250 1.44646E+013 
27300 1.43699E+013 
27350 1.42757E+013 
27400 1.41822E+013 
27450 1.40892E+013 
27500 1.39968E+013 
27550 1.39049E+013 
27600 1.38136E+013 
27650 1.37229E+013 
27700 1.36327E+013 
27750 1.35431E+013 
27800 1.34541E+013 
27850 1.33656E+013 
27900 1.32776E+013 
27950 1.31902E+013 
28000 1.31033E+013 
28050 1.3017E+013 
28100 1.29312E+013 
28150 1.28459E+013 
28200 1.27612E+013 
28250 1.2677E+013 
28300 1.25933E+013 
28350 1.25101E+013 
28400 1.24275E+013 
28450 1.23453E+013 
28500 1.22637E+013 
28550 1.21826E+013 
28600 1.2102E+013 
28650 1.20219E+013 
28700 1.19423E+013 
28750 1.18632E+013 
28800 1.17846E+013 
28850 1.17065E+013 
28900 1.16289E+013 
28950 1.15517E+013 
29000 1.1475E+013 
29050 1.13989E+013 
29100 1.13232E+013 
29150 1.12479E+013 
29200 1.11732E+013 
29250 1.10989E+013 
29300 1.10251E+013 
29350 1.09518E+013 
29400 1.08789E+013 
29450 1.08065E+013 
29500 1.07345E+013 
29550 1.0663E+013 
29600 1.05919E+013 
29650 1.05213E+013 
29700 1.04511E+013 
29750 1.03814E+013 
29800 1.03121E+013 
29850 1.02433E+013 
29900 1.01749E+013 
29950 1.01069E+013 
30000 1.00394E+013 
30050 9.97225E+012 
30100 9.90556E+012 
30150 9.8393E+012 
30200 9.77346E+012 
30250 9.70804E+012 
30300 9.64303E+012 
30350 9.57844E+012 
30400 9.51426E+012 
30450 9.45049E+012 
30500 9.38713E+012 
30550 9.32417E+012 
30600 9.26162E+012 
30650 9.19946E+012 
30700 9.1377E+012 
30750 9.07634E+012 
30800 9.01537E+012 
30850 8.95479E+012 
30900 8.89459E+012 
30950 8.83479E+012 
31000 8.77536E+012 
31050 8.71632E+012 
31100 8.65766E+012 
31150 8.59937E+012 
31200 8.54146E+012 
31250 8.48393E+012 
31300 8.42676E+012 
31350 8.36996E+012 
31400 8.31352E+012 
31450 8.25745E+012 
31500 8.20174E+012 
31550 8.14639E+012 
31600 8.0914E+012 
31650 8.03676E+012 
31700 7.98248E+012 
31750 7.92854E+012 
31800 7.87496E+012 
31850 7.82172E+012 
31900 7.76882E+012 
31950 7.71627E+012 
32000 7.66406E+012 
32050 7.61219E+012 
32100 7.56065E+012 
32150 7.50944E+012 
32200 7.45857E+012 
32250 7.40803E+012 
32300 7.35782E+012 
32350 7.30794E+012 
32400 7.25837E+012 
32450 7.20913E+012 
32500 7.16021E+012 
32550 7.11161E+012 
32600 7.06333E+012 
32650 7.01536E+012 
32700 6.9677E+012 
32750 6.92036E+012 
32800 6.87332E+012 
32850 6.82659E+012 
32900 6.78017E+012 
32950 6.73404E+012 
33000 6.68822E+012 
33050 6.6427E+012 
33100 6.59748E+012 
33150 6.55255E+012 
33200 6.50792E+012 
33250 6.46358E+012 
33300 6.41953E+012 
33350 6.37577E+012 
33400 6.33229E+012 
33450 6.2891E+012 
33500 6.2462E+012 
33550 6.20357E+012 
33600 6.16123E+012 
33650 6.11916E+012 
33700 6.07737E+012 
33750 6.03586E+012 
33800 5.99462E+012 
33850 5.95364E+012 
33900 5.91294E+012 
33950 5.87251E+012 
34000 5.83234E+012 
34050 5.79244E+012 
34100 5.7528E+012 
34150 5.71343E+012 
34200 5.67431E+012 
34250 5.63545E+012 
34300 5.59685E+012 
34350 5.5585E+012 
34400 5.52041E+012 
34450 5.48257E+012 
34500 5.44497E+012 
34550 5.40763E+012 
34600 5.37054E+012 
34650 5.33368E+012 
34700 5.29708E+012 
34750 5.26072E+012 
34800 5.22459E+012 
34850 5.18871E+012 
34900 5.15306E+012 
34950 5.11766E+012 
35000 5.08248E+012 
35050 5.04754E+012 
35100 5.01284E+012 
35150 4.97836E+012 
35200 4.94411E+012 
35250 4.91009E+012 
35300 4.8763E+012 
35350 4.84273E+012 
35400 4.80938E+012 
35450 4.77626E+012 
35500 4.74336E+012 
35550 4.71067E+012 
35600 4.67821E+012 
35650 4.64596E+012 
35700 4.61392E+012 
35750 4.5821E+012 
35800 4.5505E+012 
35850 4.5191E+012 
35900 4.48791E+012 
35950 4.45693E+012 
36000 4.42616E+012 
36050 4.3956E+012 
36100 4.36523E+012 
36150 4.33508E+012 
36200 4.30512E+012 
36250 4.27536E+012 
36300 4.24581E+012 
36350 4.21645E+012 
36400 4.18729E+012 
36450 4.15832E+012 
36500 4.12955E+012 
36550 4.10097E+012 
36600 4.07259E+012 
36650 4.04439E+012 
36700 4.01638E+012 
36750 3.98856E+012 
36800 3.96093E+012 
36850 3.93348E+012 
36900 3.90622E+012 
36950 3.87915E+012 
37000 3.85225E+012 
37050 3.82553E+012 
37100 3.799E+012 
37150 3.77264E+012 
37200 3.74646E+012 
37250 3.72046E+012 
37300 3.69463E+012 
37350 3.66898E+012 
37400 3.6435E+012 
37450 3.61819E+012 
37500 3.59305E+012 
37550 3.56808E+012 
37600 3.54329E+012 
37650 3.51865E+012 
37700 3.49419E+012 
37750 3.46989E+012 
37800 3.44575E+012 
37850 3.42178E+012 
37900 3.39797E+012 
37950 3.37432E+012 
38000 3.35083E+012 
38050 3.3275E+012 
38100 3.30433E+012 
38150 3.28131E+012 
38200 3.25845E+012 
38250 3.23575E+012 
38300 3.2132E+012 
38350 3.1908E+012 
38400 3.16856E+012 
38450 3.14646E+012 
38500 3.12452E+012 
38550 3.10272E+012 
38600 3.08107E+012 
38650 3.05957E+012 
38700 3.03822E+012 
38750 3.01701E+012 
38800 2.99594E+012 
38850 2.97502E+012 
38900 2.95424E+012 
38950 2.9336E+012 
39000 2.91311E+012 
39050 2.89275E+012 
39100 2.87253E+012 
39150 2.85245E+012 
39200 2.8325E+012 
39250 2.81269E+012 
39300 2.79302E+012 
39350 2.77348E+012 
39400 2.75407E+012 
39450 2.7348E+012 
39500 2.71565E+012 
39550 2.69664E+012 
39600 2.67776E+012 
39650 2.659E+012 
39700 2.64038E+012 
39750 2.62188E+012 
39800 2.60351E+012 
39850 2.58526E+012 
39900 2.56714E+012 
39950 2.54914E+012 
40000 2.53127E+012 
40050 2.51352E+012 
40100 2.49589E+012 
40150 2.47838E+012 
40200 2.46099E+012 
40250 2.44372E+012 
40300 2.42657E+012 
40350 2.40953E+012 
40400 2.39261E+012 
40450 2.37581E+012 
40500 2.35912E+012 
40550 2.34255E+012 
40600 2.32609E+012 
40650 2.30975E+012 
40700 2.29351E+012 
40750 2.27739E+012 
40800 2.26138E+012 
40850 2.24548E+012 
40900 2.22969E+012 
40950 2.214E+012 
41000 2.19843E+012 
41050 2.18296E+012 
41100 2.16759E+012 
41150 2.15234E+012 
41200 2.13719E+012 
41250 2.12214E+012 
41300 2.10719E+012 
41350 2.09236E+012 
41400 2.07762E+012 
41450 2.06298E+012 
41500 2.04844E+012 
41550 2.03401E+012 
41600 2.01967E+012 
41650 2.00543E+012 
41700 1.99129E+012 
41750 1.97725E+012 
41800 1.9633E+012 
41850 1.94946E+012 
41900 1.9357E+012 
41950 1.92204E+012 
42000 1.90848E+012 
42050 1.89501E+012 
42100 1.88163E+012 
42150 1.86835E+012 
42200 1.85515E+012 
42250 1.84205E+012 
42300 1.82904E+012 
42350 1.81612E+012 
42400 1.80329E+012 
42450 1.79054E+012 
42500 1.77789E+012 
42550 1.76532E+012 
42600 1.75284E+012 
42650 1.74045E+012 
42700 1.72814E+012 
42750 1.71592E+012 
42800 1.70378E+012 
42850 1.69172E+012 
42900 1.67975E+012 
42950 1.66786E+012 
43000 1.65606E+012 
43050 1.64434E+012 
43100 1.63269E+012 
43150 1.62113E+012 
43200 1.60965E+012 
43250 1.59825E+012 
43300 1.58693E+012 
43350 1.57569E+012 
43400 1.56452E+012 
43450 1.55343E+012 
43500 1.54242E+012 
43550 1.53149E+012 
43600 1.52063E+012 
43650 1.50985E+012 
43700 1.49914E+012 
43750 1.48851E+012 
43800 1.47795E+012 
43850 1.46746E+012 
43900 1.45705E+012 
43950 1.44671E+012 
44000 1.43644E+012 
44050 1.42624E+012 
44100 1.41612E+012 
44150 1.40606E+012 
44200 1.39608E+012 
44250 1.38616E+012 
44300 1.37631E+012 
44350 1.36654E+012 
44400 1.35683E+012 
44450 1.34718E+012 
44500 1.33761E+012 
44550 1.3281E+012 
44600 1.31866E+012 
44650 1.30928E+012 
44700 1.29997E+012 
44750 1.29073E+012 
44800 1.28155E+012 
44850 1.27243E+012 
44900 1.26338E+012 
44950 1.25439E+012 
45000 1.24546E+012 
45050 1.2366E+012 
45100 1.22779E+012 
45150 1.21905E+012 
45200 1.21037E+012 
45250 1.20175E+012 
45300 1.1932E+012 
45350 1.1847E+012 
45400 1.17626E+012 
45450 1.16788E+012 
45500 1.15956E+012 
45550 1.15129E+012 
45600 1.14309E+012 
45650 1.13494E+012 
45700 1.12685E+012 
45750 1.11881E+012 
45800 1.11083E+012 
45850 1.10291E+012 
45900 1.09505E+012 
45950 1.08723E+012 
46000 1.07948E+012 
46050 1.07178E+012 
46100 1.06413E+012 
46150 1.05653E+012 
46200 1.04899E+012 
46250 1.0415E+012 
46300 1.03407E+012 
46350 1.02668E+012 
46400 1.01935E+012 
46450 1.01207E+012 
46500 1.00484E+012 
46550 9.97664E+011 
46600 9.90537E+011 
46650 9.83459E+011 
46700 9.76431E+011 
46750 9.69452E+011 
46800 9.62523E+011 
46850 9.55642E+011 
46900 9.48809E+011 
46950 9.42025E+011 
47000 9.35289E+011 
47050 9.28599E+011 
47100 9.21957E+011 
47150 9.15362E+011 
47200 9.08813E+011 
47250 9.0231E+011 
47300 8.95853E+011 
47350 8.89441E+011 
47400 8.83075E+011 
47450 8.76754E+011 
47500 8.70476E+011 
47550 8.64244E+011 
47600 8.58055E+011 
47650 8.5191E+011 
47700 8.45808E+011 
47750 8.39749E+011 
47800 8.33733E+011 
47850 8.27759E+011 
47900 8.21828E+011 
47950 8.15938E+011 
48000 8.1009E+011 
48050 8.04283E+011 
48100 7.98518E+011 
48150 7.92793E+011 
48200 7.87108E+011 
48250 7.81463E+011 
48300 7.75859E+011 
48350 7.70294E+011 
48400 7.64768E+011 
48450 7.59281E+011 
48500 7.53833E+011 
48550 7.48424E+011 
48600 7.43053E+011 
48650 7.3772E+011 
48700 7.32425E+011 
48750 7.27166E+011 
48800 7.21946E+011 
48850 7.16762E+011 
48900 7.11615E+011 
48950 7.06504E+011 
49000 7.0143E+011 
49050 6.96391E+011 
49100 6.91388E+011 
49150 6.86421E+011 
49200 6.81488E+011 
49250 6.76591E+011 
49300 6.71728E+011 
49350 6.669E+011 
49400 6.62106E+011 
49450 6.57346E+011 
49500 6.52619E+011 
49550 6.47927E+011 
49600 6.43267E+011 
49650 6.38641E+011 
49700 6.34047E+011 
49750 6.29486E+011 
49800 6.24957E+011 
49850 6.20461E+011 
49900 6.15996E+011 
49950 6.11563E+011 
50000 6.07161E+011 
50050 6.02791E+011 
50100 5.98452E+011 
50150 5.94143E+011 
50200 5.89866E+011 
50250 5.85618E+011 
50300 5.81401E+011 
50350 5.77214E+011 
50400 5.73056E+011 
50450 5.68928E+011 
50500 5.64829E+011 
50550 5.6076E+011 
50600 5.56719E+011 
50650 5.52707E+011 
50700 5.48724E+011 
50750 5.44769E+011 
50800 5.40842E+011 
50850 5.36943E+011 
50900 5.33072E+011 
50950 5.29228E+011 
51000 5.25412E+011 
51050 5.21623E+011 
51100 5.17861E+011 
51150 5.14125E+011 
51200 5.10416E+011 
51250 5.06734E+011 
51300 5.03078E+011 
51350 4.99448E+011 
51400 4.95844E+011 
51450 4.92265E+011 
51500 4.88712E+011 
51550 4.85184E+011 
51600 4.81682E+011 
51650 4.78204E+011 
51700 4.74751E+011 
51750 4.71323E+011 
51800 4.67919E+011 
51850 4.6454E+011 
51900 4.61184E+011 
51950 4.57853E+011 
52000 4.54545E+011 
52050 4.51261E+011 
52100 4.48001E+011 
52150 4.44763E+011 
52200 4.41549E+011 
52250 4.38358E+011 
52300 4.35189E+011 
52350 4.32043E+011 
52400 4.2892E+011 
52450 4.25819E+011 
52500 4.2274E+011 
52550 4.19683E+011 
52600 4.16648E+011 
52650 4.13634E+011 
52700 4.10642E+011 
52750 4.07672E+011 
52800 4.04722E+011 
52850 4.01794E+011 
52900 3.98887E+011 
52950 3.96E+011 
53000 3.93135E+011 
53050 3.90289E+011 
53100 3.87464E+011 
53150 3.84659E+011 
53200 3.81875E+011 
53250 3.7911E+011 
53300 3.76365E+011 
53350 3.7364E+011 
53400 3.70934E+011 
53450 3.68247E+011 
53500 3.6558E+011 
53550 3.62932E+011 
53600 3.60303E+011 
53650 3.57693E+011 
53700 3.55101E+011 
53750 3.52528E+011 
53800 3.49973E+011 
53850 3.47437E+011 
53900 3.44919E+011 
53950 3.42418E+011 
54000 3.39936E+011 
54050 3.37472E+011 
54100 3.35025E+011 
54150 3.32596E+011 
54200 3.30184E+011 
54250 3.2779E+011 
54300 3.25412E+011 
54350 3.23052E+011 
54400 3.20709E+011 
54450 3.18382E+011 
54500 3.16072E+011 
54550 3.13779E+011 
54600 3.11502E+011 
54650 3.09242E+011 
54700 3.06998E+011 
54750 3.0477E+011 
54800 3.02558E+011 
54850 3.00361E+011 
54900 2.98181E+011 
54950 2.96016E+011 
55000 2.93867E+011 
55050 2.91733E+011 
55100 2.89615E+011 
55150 2.87511E+011 
55200 2.85423E+011 
55250 2.8335E+011 
55300 2.81292E+011 
55350 2.79248E+011 
55400 2.7722E+011 
55450 2.75205E+011 
55500 2.73206E+011 
55550 2.71221E+011 
55600 2.69249E+011 
55650 2.67293E+011 
55700 2.6535E+011 
55750 2.63421E+011 
55800 2.61506E+011 
55850 2.59605E+011 
55900 2.57718E+011 
55950 2.55844E+011 
56000 2.53983E+011 
56050 2.52136E+011 
56100 2.50303E+011 
56150 2.48482E+011 
56200 2.46675E+011 
56250 2.4488E+011 
56300 2.43099E+011 
56350 2.4133E+011 
56400 2.39574E+011 
56450 2.37831E+011 
56500 2.36101E+011 
56550 2.34382E+011 
56600 2.32677E+011 
56650 2.30983E+011 
56700 2.29302E+011 
56750 2.27632E+011 
56800 2.25975E+011 
56850 2.2433E+011 
56900 2.22697E+011 
56950 2.21075E+011 
57000 2.19465E+011 
57050 2.17867E+011 
57100 2.1628E+011 
57150 2.14705E+011 
57200 2.13141E+011 
57250 2.11588E+011 
57300 2.10047E+011 
57350 2.08516E+011 
57400 2.06997E+011 
57450 2.05489E+011 
57500 2.03991E+011 
57550 2.02505E+011 
57600 2.01029E+011 
57650 1.99564E+011 
57700 1.98109E+011 
57750 1.96665E+011 
57800 1.95231E+011 
57850 1.93808E+011 
57900 1.92395E+011 
57950 1.90992E+011 
58000 1.89599E+011 
58050 1.88216E+011 
58100 1.86844E+011 
58150 1.85481E+011 
58200 1.84128E+011 
58250 1.82785E+011 
58300 1.81451E+011 
58350 1.80127E+011 
58400 1.78813E+011 
58450 1.77508E+011 
58500 1.76213E+011 
58550 1.74927E+011 
58600 1.73651E+011 
58650 1.72383E+011 
58700 1.71125E+011 
58750 1.69876E+011 
58800 1.68636E+011 
58850 1.67405E+011 
58900 1.66183E+011 
58950 1.64969E+011 
59000 1.63765E+011 
59050 1.62569E+011 
59100 1.61381E+011 
59150 1.60203E+011 
59200 1.59033E+011 
59250 1.57871E+011 
59300 1.56718E+011 
59350 1.55573E+011 
59400 1.54437E+011 
59450 1.53308E+011 
59500 1.52188E+011 
59550 1.51076E+011 
59600 1.49972E+011 
59650 1.48876E+011 
59700 1.47788E+011 
59750 1.46708E+011 
59800 1.45636E+011 
59850 1.44571E+011 
59900 1.43514E+011 
59950 1.42465E+011 
60000 1.41423E+011 
60050 1.40389E+011 
60100 1.39363E+011 
60150 1.38344E+011 
60200 1.37332E+011 
60250 1.36328E+011 
60300 1.35331E+011 
60350 1.34341E+011 
60400 1.33358E+011 
60450 1.32383E+011 
60500 1.31414E+011 
60550 1.30453E+011 
60600 1.29498E+011 
60650 1.28551E+011 
60700 1.2761E+011 
60750 1.26676E+011 
60800 1.25749E+011 
60850 1.24829E+011 
60900 1.23915E+011 
60950 1.23008E+011 
61000 1.22108E+011 
61050 1.21214E+011 
61100 1.20327E+011 
61150 1.19446E+011 
61200 1.18571E+011 
61250 1.17703E+011 
61300 1.16841E+011 
61350 1.15985E+011 
61400 1.15136E+011 
61450 1.14293E+011 
61500 1.13456E+011 
61550 1.12625E+011 
61600 1.118E+011 
61650 1.10981E+011 
61700 1.10168E+011 
61750 1.09361E+011 
61800 1.08559E+011 
61850 1.07764E+011 
61900 1.06974E+011 
61950 1.0619E+011 
62000 1.05412E+011 
62050 1.0464E+011 
62100 1.03873E+011 
62150 1.03111E+011 
62200 1.02356E+011 
62250 1.01605E+011 
62300 1.0086E+011 
62350 1.00121E+011 
62400 9.93868E+010 
62450 9.86581E+010 
62500 9.79347E+010 
62550 9.72166E+010 
62600 9.65036E+010 
62650 9.57959E+010 
62700 9.50933E+010 
62750 9.43959E+010 
62800 9.37035E+010 
62850 9.30161E+010 
62900 9.23338E+010 
62950 9.16564E+010 
63000 9.09839E+010 
63050 9.03164E+010 
63100 8.96537E+010 
63150 8.89959E+010 
63200 8.83428E+010 
63250 8.76945E+010 
63300 8.70509E+010 
63350 8.6412E+010 
63400 8.57778E+010 
63450 8.51481E+010 
63500 8.45231E+010 
63550 8.39026E+010 
63600 8.32867E+010 
63650 8.26752E+010 
63700 8.20682E+010 
63750 8.14656E+010 
63800 8.08674E+010 
63850 8.02736E+010 
63900 7.96841E+010 
63950 7.90989E+010 
64000 7.8518E+010 
64050 7.79413E+010 
64100 7.73688E+010 
64150 7.68005E+010 
64200 7.62363E+010 
64250 7.56763E+010 
64300 7.51203E+010 
64350 7.45684E+010 
64400 7.40205E+010 
64450 7.34766E+010 
64500 7.29367E+010 
64550 7.24007E+010 
64600 7.18687E+010 
64650 7.13405E+010 
64700 7.08161E+010 
64750 7.02956E+010 
64800 6.97789E+010 
64850 6.9266E+010 
64900 6.87568E+010 
64950 6.82514E+010 
65000 6.77496E+010 
65050 6.72515E+010 
65100 6.6757E+010 
65150 6.62661E+010 
65200 6.57789E+010 
65250 6.52952E+010 
65300 6.4815E+010 
65350 6.43383E+010 
65400 6.38651E+010 
65450 6.33954E+010 
65500 6.29291E+010 
65550 6.24662E+010 
65600 6.20066E+010 
65650 6.15505E+010 
65700 6.10977E+010 
65750 6.06481E+010 
65800 6.02019E+010 
65850 5.9759E+010 
65900 5.93192E+010 
65950 5.88827E+010 
66000 5.84494E+010 
66050 5.80192E+010 
66100 5.75922E+010 
66150 5.71684E+010 
66200 5.67476E+010 
66250 5.63299E+010 
66300 5.59152E+010 
66350 5.55036E+010 
66400 5.5095E+010 
66450 5.46893E+010 
66500 5.42867E+010 
66550 5.3887E+010 
66600 5.34902E+010 
66650 5.30963E+010 
66700 5.27053E+010 
66750 5.23172E+010 
66800 5.19319E+010 
66850 5.15494E+010 
66900 5.11698E+010 
66950 5.07928E+010 
67000 5.04187E+010 
67050 5.00473E+010 
67100 4.96786E+010 
67150 4.93126E+010 
67200 4.89494E+010 
67250 4.85887E+010 
67300 4.82307E+010 
67350 4.78753E+010 
67400 4.75225E+010 
67450 4.71724E+010 
67500 4.68247E+010 
67550 4.64797E+010 
67600 4.61371E+010 
67650 4.5797E+010 
67700 4.54595E+010 
67750 4.51244E+010 
67800 4.47918E+010 
67850 4.44616E+010 
67900 4.41338E+010 
67950 4.38085E+010 
68000 4.34855E+010 
68050 4.31649E+010 
68100 4.28466E+010 
68150 4.25307E+010 
68200 4.22171E+010 
68250 4.19057E+010 
68300 4.15967E+010 
68350 4.12899E+010 
68400 4.09854E+010 
68450 4.06831E+010 
68500 4.0383E+010 
68550 4.00852E+010 
68600 3.97895E+010 
68650 3.9496E+010 
68700 3.92046E+010 
68750 3.89154E+010 
68800 3.86283E+010 
68850 3.83433E+010 
68900 3.80604E+010 
68950 3.77795E+010 
69000 3.75008E+010 
69050 3.7224E+010 
69100 3.69493E+010 
69150 3.66766E+010 
69200 3.6406E+010 
69250 3.61373E+010 
69300 3.58705E+010 
69350 3.56058E+010 
69400 3.5343E+010 
69450 3.50821E+010 
69500 3.48231E+010 
69550 3.4566E+010 
69600 3.43108E+010 
69650 3.40575E+010 
69700 3.3806E+010 
69750 3.35564E+010 
69800 3.33087E+010 
69850 3.30627E+010 
69900 3.28186E+010 
69950 3.25762E+010 
70000 3.23356E+010 
70050 3.20968E+010 
70100 3.18597E+010 
70150 3.16244E+010 
70200 3.13908E+010 
70250 3.1159E+010 
70300 3.09288E+010 
70350 3.07003E+010 
70400 3.04735E+010 
70450 3.02484E+010 
70500 3.00249E+010 
70550 2.98031E+010 
70600 2.95829E+010 
70650 2.93643E+010 
70700 2.91473E+010 
70750 2.89319E+010 
70800 2.87181E+010 
70850 2.85059E+010 
70900 2.82952E+010 
70950 2.80861E+010 
71000 2.78785E+010 
71050 2.76724E+010 
71100 2.74679E+010 
71150 2.72649E+010 
71200 2.70633E+010 
71250 2.68633E+010 
71300 2.66647E+010 
71350 2.64675E+010 
71400 2.62719E+010 
71450 2.60776E+010 
71500 2.58848E+010 
71550 2.56934E+010 
71600 2.55034E+010 
71650 2.53148E+010 
71700 2.51276E+010 
71750 2.49418E+010 
71800 2.47573E+010 
71850 2.45742E+010 
71900 2.43925E+010 
71950 2.42121E+010 
72000 2.4033E+010 
72050 2.38552E+010 
72100 2.36787E+010 
72150 2.35036E+010 
72200 2.33297E+010 
72250 2.31571E+010 
72300 2.29858E+010 
72350 2.28157E+010 
72400 2.26469E+010 
72450 2.24793E+010 
72500 2.2313E+010 
72550 2.21479E+010 
72600 2.1984E+010 
72650 2.18213E+010 
72700 2.16598E+010 
72750 2.14995E+010 
72800 2.13404E+010 
72850 2.11825E+010 
72900 2.10257E+010 
72950 2.087E+010 
73000 2.07156E+010 
73050 2.05622E+010 
73100 2.041E+010 
73150 2.02589E+010 
73200 2.01089E+010 
73250 1.99601E+010 
73300 1.98123E+010 
73350 1.96656E+010 
73400 1.952E+010 
73450 1.93755E+010 
73500 1.9232E+010 
73550 1.90896E+010 
73600 1.89482E+010 
73650 1.88079E+010 
73700 1.86686E+010 
73750 1.85303E+010 
73800 1.83931E+010 
73850 1.82569E+010 
73900 1.81216E+010 
73950 1.79874E+010 
74000 1.78542E+010 
74050 1.77219E+010 
74100 1.75906E+010 
74150 1.74603E+010 
74200 1.7331E+010 
74250 1.72026E+010 
74300 1.70751E+010 
74350 1.69486E+010 
74400 1.6823E+010 
74450 1.66984E+010 
74500 1.65746E+010 
74550 1.64518E+010 
74600 1.63299E+010 
74650 1.62089E+010 
74700 1.60888E+010 
74750 1.59695E+010 
74800 1.58512E+010 
74850 1.57337E+010 
74900 1.56171E+010 
74950 1.55013E+010 
75000 1.53864E+010 
75050 1.52723E+010 
75100 1.51591E+010 
75150 1.50468E+010 
75200 1.49352E+010 
75250 1.48245E+010 
75300 1.47146E+010 
75350 1.46055E+010 
75400 1.44972E+010 
75450 1.43897E+010 
75500 1.4283E+010 
75550 1.41771E+010 
75600 1.4072E+010 
75650 1.39676E+010 
75700 1.3864E+010 
75750 1.37612E+010 
75800 1.36592E+010 
75850 1.35578E+010 
75900 1.34573E+010 
75950 1.33575E+010 
76000 1.32584E+010 
76050 1.316E+010 
76100 1.30624E+010 
76150 1.29655E+010 
76200 1.28694E+010 
76250 1.27739E+010 
76300 1.26791E+010 
76350 1.25851E+010 
76400 1.24917E+010 
76450 1.2399E+010 
76500 1.2307E+010 
76550 1.22157E+010 
76600 1.2125E+010 
76650 1.20351E+010 
76700 1.19458E+010 
76750 1.18571E+010 
76800 1.17691E+010 
76850 1.16818E+010 
76900 1.15951E+010 
76950 1.1509E+010 
77000 1.14236E+010 
77050 1.13388E+010 
77100 1.12547E+010 
77150 1.11711E+010 
77200 1.10882E+010 
77250 1.10059E+010 
77300 1.09242E+010 
77350 1.08431E+010 
77400 1.07626E+010 
77450 1.06827E+010 
77500 1.06034E+010 
77550 1.05247E+010 
77600 1.04465E+010 
77650 1.0369E+010 
77700 1.0292E+010 
77750 1.02155E+010 
77800 1.01397E+010 
77850 1.00644E+010 
77900 9.98965E+009 
77950 9.91546E+009 
78000 9.84182E+009 
78050 9.76873E+009 
78100 9.69618E+009 
78150 9.62417E+009 
78200 9.55268E+009 
78250 9.48173E+009 
78300 9.4113E+009 
78350 9.34139E+009 
78400 9.272E+009 
78450 9.20313E+009 
78500 9.13476E+009 
78550 9.0669E+009 
78600 8.99954E+009 
78650 8.93268E+009 
78700 8.86631E+009 
78750 8.80044E+009 
78800 8.73505E+009 
78850 8.67014E+009 
78900 8.60572E+009 
78950 8.54178E+009 
79000 8.4783E+009 
79050 8.4153E+009 
79100 8.35276E+009 
79150 8.29069E+009 
79200 8.22908E+009 
79250 8.16792E+009 
79300 8.10721E+009 
79350 8.04696E+009 
79400 7.98715E+009 
79450 7.92778E+009 
79500 7.86885E+009 
79550 7.81036E+009 
79600 7.75231E+009 
79650 7.69468E+009 
79700 7.63748E+009 
79750 7.5807E+009 
79800 7.52434E+009 
79850 7.46841E+009 
79900 7.41288E+009 
79950 7.35777E+009 
80000 7.30306E+009 
80050 7.24876E+009 
80100 7.19486E+009 
80150 7.14137E+009 
80200 7.08826E+009 
80250 7.03555E+009 
80300 6.98324E+009 
80350 6.9313E+009 
80400 6.87976E+009 
80450 6.8286E+009 
80500 6.77781E+009 
80550 6.7274E+009 
80600 6.67737E+009 
80650 6.6277E+009 
80700 6.57841E+009 
80750 6.52948E+009 
80800 6.48091E+009 
80850 6.4327E+009 
80900 6.38485E+009 
80950 6.33735E+009 
81000 6.29021E+009 
81050 6.24341E+009 
81100 6.19696E+009 
81150 6.15086E+009 
81200 6.1051E+009 
81250 6.05968E+009 
81300 6.01459E+009 
81350 5.96984E+009 
81400 5.92542E+009 
81450 5.88133E+009 
81500 5.83757E+009 
81550 5.79413E+009 
81600 5.75101E+009 
81650 5.70821E+009 
81700 5.66573E+009 
81750 5.62357E+009 
81800 5.58172E+009 
81850 5.54018E+009 
81900 5.49894E+009 
81950 5.45802E+009 
82000 5.41739E+009 
82050 5.37707E+009 
82100 5.33704E+009 
82150 5.29732E+009 
82200 5.25789E+009 
82250 5.21875E+009 
82300 5.1799E+009 
82350 5.14134E+009 
82400 5.10306E+009 
82450 5.06507E+009 
82500 5.02736E+009 
82550 4.98993E+009 
82600 4.95278E+009 
82650 4.91591E+009 
82700 4.8793E+009 
82750 4.84297E+009 
82800 4.80691E+009 
82850 4.77112E+009 
82900 4.73559E+009 
82950 4.70033E+009 
83000 4.66533E+009 
83050 4.63058E+009 
83100 4.5961E+009 
83150 4.56187E+009 
83200 4.5279E+009 
83250 4.49417E+009 
83300 4.4607E+009 
83350 4.42748E+009 
83400 4.3945E+009 
83450 4.36177E+009 
83500 4.32928E+009 
83550 4.29703E+009 
83600 4.26502E+009 
83650 4.23325E+009 
83700 4.20172E+009 
83750 4.17042E+009 
83800 4.13935E+009 
83850 4.10851E+009 
83900 4.0779E+009 
83950 4.04752E+009 
84000 4.01736E+009 
84050 3.98743E+009 
84100 3.95772E+009 
84150 3.92824E+009 
84200 3.89897E+009 
84250 3.86991E+009 
84300 3.84108E+009 
84350 3.81245E+009 
84400 3.78405E+009 
84450 3.75585E+009 
84500 3.72786E+009 
84550 3.70008E+009 
84600 3.6725E+009 
84650 3.64513E+009 
84700 3.61796E+009 
84750 3.591E+009 
84800 3.56424E+009 
84850 3.53767E+009 
84900 3.5113E+009 
84950 3.48513E+009 
85000 3.45915E+009 
85050 3.43337E+009 
85100 3.40777E+009 
85150 3.38237E+009 
85200 3.35716E+009 
85250 3.33213E+009 
85300 3.30729E+009 
85350 3.28263E+009 
85400 3.25816E+009 
85450 3.23387E+009 
85500 3.20976E+009 
85550 3.18583E+009 
85600 3.16207E+009 
85650 3.1385E+009 
85700 3.1151E+009 
85750 3.09187E+009 
85800 3.06881E+009 
85850 3.04593E+009 
85900 3.02322E+009 
85950 3.00067E+009 
86000 2.97829E+009 
86050 2.95608E+009 
86100 2.93404E+009 
86150 2.91216E+009 
86200 2.89044E+009 
86250 2.86888E+009 
86300 2.84748E+009 
86350 2.82625E+009 
86400 2.80517E+009 
86450 2.78424E+009 
86500 2.76348E+009 
86550 2.74286E+009 
86600 2.7224E+009 
86650 2.7021E+009 
86700 2.68194E+009 
86750 2.66193E+009 
86800 2.64207E+009 
86850 2.62236E+009 
86900 2.6028E+009 
86950 2.58338E+009 
87000 2.56411E+009 
87050 2.54498E+009 
87100 2.52599E+009 
87150 2.50715E+009 
87200 2.48844E+009 
87250 2.46987E+009 
87300 2.45144E+009 
87350 2.43315E+009 
87400 2.415E+009 
87450 2.39698E+009 
87500 2.37909E+009 
87550 2.36134E+009 
87600 2.34371E+009 
87650 2.32622E+009 
87700 2.30886E+009 
87750 2.29163E+009 
87800 2.27453E+009 
87850 2.25755E+009 
87900 2.24071E+009 
87950 2.22398E+009 
88000 2.20738E+009 
88050 2.19091E+009 
88100 2.17455E+009 
88150 2.15832E+009 
88200 2.14221E+009 
88250 2.12622E+009 
88300 2.11035E+009 
88350 2.0946E+009 
88400 2.07896E+009 
88450 2.06344E+009 
88500 2.04804E+009 
88550 2.03275E+009 
88600 2.01757E+009 
88650 2.00251E+009 
88700 1.98756E+009 
88750 1.97272E+009 
88800 1.95799E+009 
88850 1.94337E+009 
88900 1.92886E+009 
88950 1.91446E+009 
89000 1.90017E+009 
89050 1.88598E+009 
89100 1.8719E+009 
89150 1.85792E+009 
89200 1.84404E+009 
89250 1.83027E+009 
89300 1.81661E+009 
89350 1.80304E+009 
89400 1.78958E+009 
89450 1.77621E+009 
89500 1.76295E+009 
89550 1.74978E+009 
89600 1.73671E+009 
89650 1.72374E+009 
89700 1.71087E+009 
89750 1.69809E+009 
89800 1.6854E+009 
89850 1.67281E+009 
89900 1.66032E+009 
89950 1.64792E+009 
90000 1.63561E+009 
90050 1.62339E+009 
90100 1.61126E+009 
90150 1.59923E+009 
90200 1.58728E+009 
90250 1.57542E+009 
90300 1.56365E+009 
90350 1.55197E+009 
90400 1.54038E+009 
90450 1.52887E+009 
90500 1.51745E+009 
90550 1.50611E+009 
90600 1.49486E+009 
90650 1.48369E+009 
90700 1.4726E+009 
90750 1.4616E+009 
90800 1.45068E+009 
90850 1.43984E+009 
90900 1.42908E+009 
90950 1.4184E+009 
91000 1.4078E+009 
91050 1.39728E+009 
91100 1.38684E+009 
91150 1.37648E+009 
91200 1.36619E+009 
91250 1.35598E+009 
91300 1.34585E+009 
91350 1.33579E+009 
91400 1.32581E+009 
91450 1.3159E+009 
91500 1.30606E+009 
91550 1.2963E+009 
91600 1.28661E+009 
91650 1.27699E+009 
91700 1.26745E+009 
91750 1.25798E+009 
91800 1.24857E+009 
91850 1.23924E+009 
91900 1.22998E+009 
91950 1.22078E+009 
92000 1.21166E+009 
92050 1.2026E+009 
92100 1.19361E+009 
92150 1.18469E+009 
92200 1.17583E+009 
92250 1.16704E+009 
92300 1.15832E+009 
92350 1.14966E+009 
92400 1.14106E+009 
92450 1.13253E+009 
92500 1.12406E+009 
92550 1.11566E+009 
92600 1.10731E+009 
92650 1.09904E+009 
92700 1.09082E+009 
92750 1.08266E+009 
92800 1.07457E+009 
92850 1.06653E+009 
92900 1.05856E+009 
92950 1.05064E+009 
93000 1.04278E+009 
93050 1.03499E+009 
93100 1.02725E+009 
93150 1.01956E+009 
93200 1.01194E+009 
93250 1.00437E+009 
93300 9.9686E+008 
93350 9.89405E+008 
93400 9.82005E+008 
93450 9.7466E+008 
93500 9.67371E+008 
93550 9.60135E+008 
93600 9.52954E+008 
93650 9.45826E+008 
93700 9.38752E+008 
93750 9.3173E+008 
93800 9.24761E+008 
93850 9.17844E+008 
93900 9.10978E+008 
93950 9.04164E+008 
94000 8.974E+008 
94050 8.90687E+008 
94100 8.84024E+008 
94150 8.7741E+008 
94200 8.70847E+008 
94250 8.64332E+008 
94300 8.57865E+008 
94350 8.51447E+008 
94400 8.45077E+008 
94450 8.38755E+008 
94500 8.32479E+008 
94550 8.26251E+008 
94600 8.20069E+008 
94650 8.13933E+008 
94700 8.07843E+008 
94750 8.01799E+008 
94800 7.95799E+008 
94850 7.89844E+008 
94900 7.83934E+008 
94950 7.78068E+008 
95000 7.72246E+008 
95050 7.66467E+008 
95100 7.60732E+008 
95150 7.55039E+008 
95200 7.49388E+008 
95250 7.4378E+008 
95300 7.38214E+008 
95350 7.32689E+008 
95400 7.27206E+008 
95450 7.21764E+008 
95500 7.16362E+008 
95550 7.11E+008 
95600 7.05679E+008 
95650 7.00397E+008 
95700 6.95155E+008 
95750 6.89952E+008 
95800 6.84788E+008 
95850 6.79662E+008 
95900 6.74575E+008 
95950 6.69525E+008 
96000 6.64514E+008 
96050 6.59539E+008 
96100 6.54602E+008 
96150 6.49702E+008 
96200 6.44839E+008 
96250 6.40011E+008 
96300 6.3522E+008 
96350 6.30465E+008 
96400 6.25745E+008 
96450 6.2106E+008 
96500 6.16411E+008 
96550 6.11796E+008 
96600 6.07216E+008 
96650 6.0267E+008 
96700 5.98157E+008 
96750 5.93679E+008 
96800 5.89234E+008 
96850 5.84822E+008 
96900 5.80443E+008 
96950 5.76097E+008 
97000 5.71783E+008 
97050 5.67502E+008 
97100 5.63253E+008 
97150 5.59035E+008 
97200 5.54849E+008 
97250 5.50694E+008 
97300 5.4657E+008 
97350 5.42477E+008 
97400 5.38415E+008 
97450 5.34383E+008 
97500 5.30381E+008 
97550 5.26409E+008 
97600 5.22467E+008 
97650 5.18554E+008 
97700 5.1467E+008 
97750 5.10816E+008 
97800 5.0699E+008 
97850 5.03193E+008 
97900 4.99424E+008 
97950 4.95683E+008 
98000 4.91971E+008 
98050 4.88286E+008 
98100 4.84629E+008 
98150 4.80999E+008 
98200 4.77396E+008 
98250 4.7382E+008 
98300 4.70271E+008 
98350 4.66748E+008 
98400 4.63252E+008 
98450 4.59782E+008 
98500 4.56337E+008 
98550 4.52919E+008 
98600 4.49526E+008 
98650 4.46158E+008 
98700 4.42816E+008 
98750 4.39498E+008 
98800 4.36206E+008 
98850 4.32938E+008 
98900 4.29694E+008 
98950 4.26475E+008 
99000 4.2328E+008 
99050 4.20109E+008 
99100 4.16961E+008 
99150 4.13837E+008 
99200 4.10736E+008 
99250 4.07659E+008 
99300 4.04604E+008 
99350 4.01573E+008 
99400 3.98564E+008 
99450 3.95577E+008 
99500 3.92613E+008 
99550 3.89671E+008 
99600 3.86751E+008 
99650 3.83853E+008 
99700 3.80977E+008 
99750 3.78122E+008 
99800 3.75288E+008 
99850 3.72476E+008 
99900 3.69685E+008 
99950 3.66914E+008 
100000 3.64165E+008 
