#F U:\Beamline I20\I20-2_EDE\Wigglers\xop\83mm-small-wiggler\EDE wiggler\1p1T-300mA-0p12x0p9mrad.dat
#C I20EDE 1.1T 300mA 0.12x0.9mrad
#S 1 File written by xplot on Tue Dec 07 18:21:44 2010
#N 2
#L    Energy [eV]  Flux [ph/s/0.1%bw]
50 6.59717E+012 
100 1.0462E+013 
150 1.36865E+013 
200 1.65454E+013 
250 1.91528E+013 
300 2.157E+013 
350 2.38349E+013 
400 2.5973E+013 
450 2.80025E+013 
500 2.99369E+013 
550 3.17869E+013 
600 3.35608E+013 
650 3.52653E+013 
700 3.69061E+013 
750 3.8488E+013 
800 4.00149E+013 
850 4.14904E+013 
900 4.29175E+013 
950 4.42989E+013 
1000 4.5637E+013 
1050 4.69338E+013 
1100 4.81913E+013 
1150 4.94113E+013 
1200 5.05953E+013 
1250 5.17447E+013 
1300 5.28609E+013 
1350 5.3945E+013 
1400 5.49983E+013 
1450 5.60218E+013 
1500 5.70165E+013 
1550 5.79832E+013 
1600 5.89228E+013 
1650 5.98362E+013 
1700 6.07241E+013 
1750 6.15873E+013 
1800 6.24264E+013 
1850 6.3242E+013 
1900 6.40349E+013 
1950 6.48055E+013 
2000 6.55545E+013 
2050 6.62823E+013 
2100 6.69896E+013 
2150 6.76767E+013 
2200 6.83442E+013 
2250 6.89926E+013 
2300 6.96221E+013 
2350 7.02334E+013 
2400 7.08268E+013 
2450 7.14026E+013 
2500 7.19614E+013 
2550 7.25033E+013 
2600 7.30288E+013 
2650 7.35383E+013 
2700 7.4032E+013 
2750 7.45104E+013 
2800 7.49736E+013 
2850 7.5422E+013 
2900 7.5856E+013 
2950 7.62757E+013 
3000 7.66815E+013 
3050 7.70737E+013 
3100 7.74524E+013 
3150 7.78181E+013 
3200 7.81709E+013 
3250 7.85111E+013 
3300 7.88388E+013 
3350 7.91545E+013 
3400 7.94582E+013 
3450 7.97503E+013 
3500 8.00308E+013 
3550 8.03001E+013 
3600 8.05584E+013 
3650 8.08058E+013 
3700 8.10426E+013 
3750 8.1269E+013 
3800 8.14851E+013 
3850 8.16911E+013 
3900 8.18873E+013 
3950 8.20738E+013 
4000 8.22507E+013 
4050 8.24184E+013 
4100 8.25768E+013 
4150 8.27263E+013 
4200 8.28669E+013 
4250 8.29988E+013 
4300 8.31223E+013 
4350 8.32373E+013 
4400 8.33442E+013 
4450 8.34429E+013 
4500 8.35338E+013 
4550 8.36169E+013 
4600 8.36924E+013 
4650 8.37604E+013 
4700 8.3821E+013 
4750 8.38744E+013 
4800 8.39207E+013 
4850 8.39601E+013 
4900 8.39926E+013 
4950 8.40185E+013 
5000 8.40377E+013 
5050 8.40505E+013 
5100 8.4057E+013 
5150 8.40572E+013 
5200 8.40514E+013 
5250 8.40395E+013 
5300 8.40217E+013 
5350 8.39982E+013 
5400 8.3969E+013 
5450 8.39343E+013 
5500 8.38941E+013 
5550 8.38485E+013 
5600 8.37977E+013 
5650 8.37418E+013 
5700 8.36808E+013 
5750 8.36148E+013 
5800 8.35439E+013 
5850 8.34683E+013 
5900 8.3388E+013 
5950 8.33032E+013 
6000 8.32138E+013 
6050 8.312E+013 
6100 8.30219E+013 
6150 8.29195E+013 
6200 8.2813E+013 
6250 8.27024E+013 
6300 8.25878E+013 
6350 8.24693E+013 
6400 8.2347E+013 
6450 8.22209E+013 
6500 8.20911E+013 
6550 8.19577E+013 
6600 8.18208E+013 
6650 8.16804E+013 
6700 8.15366E+013 
6750 8.13895E+013 
6800 8.12392E+013 
6850 8.10857E+013 
6900 8.0929E+013 
6950 8.07693E+013 
7000 8.06066E+013 
7050 8.0441E+013 
7100 8.02726E+013 
7150 8.01013E+013 
7200 7.99273E+013 
7250 7.97507E+013 
7300 7.95714E+013 
7350 7.93896E+013 
7400 7.92052E+013 
7450 7.90185E+013 
7500 7.88293E+013 
7550 7.86378E+013 
7600 7.84441E+013 
7650 7.82481E+013 
7700 7.805E+013 
7750 7.78497E+013 
7800 7.76474E+013 
7850 7.7443E+013 
7900 7.72367E+013 
7950 7.70285E+013 
8000 7.68184E+013 
8050 7.66065E+013 
8100 7.63928E+013 
8150 7.61774E+013 
8200 7.59603E+013 
8250 7.57415E+013 
8300 7.55212E+013 
8350 7.52993E+013 
8400 7.50759E+013 
8450 7.4851E+013 
8500 7.46247E+013 
8550 7.4397E+013 
8600 7.4168E+013 
8650 7.39377E+013 
8700 7.37061E+013 
8750 7.34732E+013 
8800 7.32392E+013 
8850 7.3004E+013 
8900 7.27677E+013 
8950 7.25303E+013 
9000 7.22919E+013 
9050 7.20524E+013 
9100 7.1812E+013 
9150 7.15706E+013 
9200 7.13284E+013 
9250 7.10852E+013 
9300 7.08412E+013 
9350 7.05964E+013 
9400 7.03507E+013 
9450 7.01044E+013 
9500 6.98573E+013 
9550 6.96095E+013 
9600 6.93611E+013 
9650 6.9112E+013 
9700 6.88623E+013 
9750 6.8612E+013 
9800 6.83612E+013 
9850 6.81099E+013 
9900 6.7858E+013 
9950 6.76057E+013 
10000 6.73529E+013 
10050 6.70997E+013 
10100 6.68461E+013 
10150 6.65922E+013 
10200 6.63379E+013 
10250 6.60833E+013 
10300 6.58283E+013 
10350 6.55731E+013 
10400 6.53176E+013 
10450 6.50619E+013 
10500 6.4806E+013 
10550 6.45499E+013 
10600 6.42937E+013 
10650 6.40372E+013 
10700 6.37807E+013 
10750 6.3524E+013 
10800 6.32673E+013 
10850 6.30105E+013 
10900 6.27536E+013 
10950 6.24967E+013 
11000 6.22398E+013 
11050 6.19829E+013 
11100 6.1726E+013 
11150 6.14692E+013 
11200 6.12124E+013 
11250 6.09557E+013 
11300 6.06991E+013 
11350 6.04426E+013 
11400 6.01862E+013 
11450 5.993E+013 
11500 5.96739E+013 
11550 5.94179E+013 
11600 5.91622E+013 
11650 5.89067E+013 
11700 5.86514E+013 
11750 5.83963E+013 
11800 5.81414E+013 
11850 5.78868E+013 
11900 5.76325E+013 
11950 5.73784E+013 
12000 5.71247E+013 
12050 5.68712E+013 
12100 5.66181E+013 
12150 5.63653E+013 
12200 5.61128E+013 
12250 5.58607E+013 
12300 5.5609E+013 
12350 5.53576E+013 
12400 5.51067E+013 
12450 5.48561E+013 
12500 5.4606E+013 
12550 5.43562E+013 
12600 5.41069E+013 
12650 5.38581E+013 
12700 5.36097E+013 
12750 5.33617E+013 
12800 5.31142E+013 
12850 5.28672E+013 
12900 5.26207E+013 
12950 5.23747E+013 
13000 5.21292E+013 
13050 5.18842E+013 
13100 5.16397E+013 
13150 5.13958E+013 
13200 5.11524E+013 
13250 5.09095E+013 
13300 5.06672E+013 
13350 5.04254E+013 
13400 5.01843E+013 
13450 4.99436E+013 
13500 4.97036E+013 
13550 4.94642E+013 
13600 4.92254E+013 
13650 4.89871E+013 
13700 4.87495E+013 
13750 4.85125E+013 
13800 4.82761E+013 
13850 4.80403E+013 
13900 4.78052E+013 
13950 4.75707E+013 
14000 4.73369E+013 
14050 4.71036E+013 
14100 4.68711E+013 
14150 4.66392E+013 
14200 4.6408E+013 
14250 4.61774E+013 
14300 4.59476E+013 
14350 4.57183E+013 
14400 4.54898E+013 
14450 4.5262E+013 
14500 4.50348E+013 
14550 4.48084E+013 
14600 4.45826E+013 
14650 4.43576E+013 
14700 4.41332E+013 
14750 4.39096E+013 
14800 4.36867E+013 
14850 4.34645E+013 
14900 4.3243E+013 
14950 4.30223E+013 
15000 4.28022E+013 
15050 4.25829E+013 
15100 4.23643E+013 
15150 4.21465E+013 
15200 4.19294E+013 
15250 4.1713E+013 
15300 4.14974E+013 
15350 4.12826E+013 
15400 4.10684E+013 
15450 4.08551E+013 
15500 4.06424E+013 
15550 4.04306E+013 
15600 4.02195E+013 
15650 4.00091E+013 
15700 3.97995E+013 
15750 3.95907E+013 
15800 3.93826E+013 
15850 3.91753E+013 
15900 3.89688E+013 
15950 3.8763E+013 
16000 3.8558E+013 
16050 3.83538E+013 
16100 3.81503E+013 
16150 3.79476E+013 
16200 3.77457E+013 
16250 3.75445E+013 
16300 3.73442E+013 
16350 3.71446E+013 
16400 3.69458E+013 
16450 3.67477E+013 
16500 3.65505E+013 
16550 3.6354E+013 
16600 3.61583E+013 
16650 3.59634E+013 
16700 3.57692E+013 
16750 3.55758E+013 
16800 3.53833E+013 
16850 3.51915E+013 
16900 3.50004E+013 
16950 3.48102E+013 
17000 3.46207E+013 
17050 3.4432E+013 
17100 3.42441E+013 
17150 3.4057E+013 
17200 3.38707E+013 
17250 3.36851E+013 
17300 3.35003E+013 
17350 3.33163E+013 
17400 3.31331E+013 
17450 3.29506E+013 
17500 3.2769E+013 
17550 3.25881E+013 
17600 3.2408E+013 
17650 3.22286E+013 
17700 3.20501E+013 
17750 3.18723E+013 
17800 3.16953E+013 
17850 3.1519E+013 
17900 3.13436E+013 
17950 3.11689E+013 
18000 3.09949E+013 
18050 3.08218E+013 
18100 3.06494E+013 
18150 3.04778E+013 
18200 3.03069E+013 
18250 3.01369E+013 
18300 2.99675E+013 
18350 2.9799E+013 
18400 2.96312E+013 
18450 2.94641E+013 
18500 2.92979E+013 
18550 2.91324E+013 
18600 2.89676E+013 
18650 2.88036E+013 
18700 2.86403E+013 
18750 2.84779E+013 
18800 2.83161E+013 
18850 2.81551E+013 
18900 2.79949E+013 
18950 2.78354E+013 
19000 2.76766E+013 
19050 2.75186E+013 
19100 2.73614E+013 
19150 2.72049E+013 
19200 2.70491E+013 
19250 2.6894E+013 
19300 2.67397E+013 
19350 2.65862E+013 
19400 2.64333E+013 
19450 2.62812E+013 
19500 2.61298E+013 
19550 2.59792E+013 
19600 2.58293E+013 
19650 2.56801E+013 
19700 2.55316E+013 
19750 2.53838E+013 
19800 2.52368E+013 
19850 2.50905E+013 
19900 2.49448E+013 
19950 2.48E+013 
20000 2.46558E+013 
20050 2.45123E+013 
20100 2.43695E+013 
20150 2.42274E+013 
20200 2.40861E+013 
20250 2.39454E+013 
20300 2.38055E+013 
20350 2.36662E+013 
20400 2.35276E+013 
20450 2.33897E+013 
20500 2.32526E+013 
20550 2.31161E+013 
20600 2.29802E+013 
20650 2.28451E+013 
20700 2.27107E+013 
20750 2.25769E+013 
20800 2.24438E+013 
20850 2.23114E+013 
20900 2.21796E+013 
20950 2.20486E+013 
21000 2.19182E+013 
21050 2.17884E+013 
21100 2.16594E+013 
21150 2.15309E+013 
21200 2.14032E+013 
21250 2.12761E+013 
21300 2.11497E+013 
21350 2.10239E+013 
21400 2.08988E+013 
21450 2.07743E+013 
21500 2.06504E+013 
21550 2.05273E+013 
21600 2.04047E+013 
21650 2.02828E+013 
21700 2.01615E+013 
21750 2.00409E+013 
21800 1.99209E+013 
21850 1.98015E+013 
21900 1.96828E+013 
21950 1.95646E+013 
22000 1.94471E+013 
22050 1.93302E+013 
22100 1.9214E+013 
22150 1.90984E+013 
22200 1.89833E+013 
22250 1.88689E+013 
22300 1.87551E+013 
22350 1.86419E+013 
22400 1.85293E+013 
22450 1.84173E+013 
22500 1.83059E+013 
22550 1.81951E+013 
22600 1.80849E+013 
22650 1.79753E+013 
22700 1.78663E+013 
22750 1.77579E+013 
22800 1.765E+013 
22850 1.75428E+013 
22900 1.74361E+013 
22950 1.733E+013 
23000 1.72245E+013 
23050 1.71195E+013 
23100 1.70152E+013 
23150 1.69114E+013 
23200 1.68081E+013 
23250 1.67054E+013 
23300 1.66033E+013 
23350 1.65018E+013 
23400 1.64008E+013 
23450 1.63003E+013 
23500 1.62004E+013 
23550 1.61011E+013 
23600 1.60023E+013 
23650 1.59041E+013 
23700 1.58064E+013 
23750 1.57092E+013 
23800 1.56126E+013 
23850 1.55165E+013 
23900 1.5421E+013 
23950 1.53259E+013 
24000 1.52315E+013 
24050 1.51375E+013 
24100 1.5044E+013 
24150 1.49511E+013 
24200 1.48587E+013 
24250 1.47669E+013 
24300 1.46755E+013 
24350 1.45846E+013 
24400 1.44943E+013 
24450 1.44045E+013 
24500 1.43152E+013 
24550 1.42263E+013 
24600 1.4138E+013 
24650 1.40502E+013 
24700 1.39629E+013 
24750 1.3876E+013 
24800 1.37897E+013 
24850 1.37039E+013 
24900 1.36185E+013 
24950 1.35336E+013 
25000 1.34492E+013 
25050 1.33653E+013 
25100 1.32819E+013 
25150 1.31989E+013 
25200 1.31165E+013 
25250 1.30344E+013 
25300 1.29529E+013 
25350 1.28718E+013 
25400 1.27912E+013 
25450 1.27111E+013 
25500 1.26314E+013 
25550 1.25522E+013 
25600 1.24734E+013 
25650 1.23951E+013 
25700 1.23173E+013 
25750 1.22399E+013 
25800 1.21629E+013 
25850 1.20864E+013 
25900 1.20103E+013 
25950 1.19347E+013 
26000 1.18595E+013 
26050 1.17847E+013 
26100 1.17104E+013 
26150 1.16365E+013 
26200 1.15631E+013 
26250 1.149E+013 
26300 1.14174E+013 
26350 1.13452E+013 
26400 1.12735E+013 
26450 1.12021E+013 
26500 1.11312E+013 
26550 1.10607E+013 
26600 1.09906E+013 
26650 1.0921E+013 
26700 1.08517E+013 
26750 1.07828E+013 
26800 1.07144E+013 
26850 1.06463E+013 
26900 1.05787E+013 
26950 1.05114E+013 
27000 1.04445E+013 
27050 1.03781E+013 
27100 1.0312E+013 
27150 1.02464E+013 
27200 1.01811E+013 
27250 1.01162E+013 
27300 1.00516E+013 
27350 9.98751E+012 
27400 9.92376E+012 
27450 9.86039E+012 
27500 9.7974E+012 
27550 9.73478E+012 
27600 9.67254E+012 
27650 9.61066E+012 
27700 9.54916E+012 
27750 9.48802E+012 
27800 9.42725E+012 
27850 9.36684E+012 
27900 9.3068E+012 
27950 9.24711E+012 
28000 9.18778E+012 
28050 9.12881E+012 
28100 9.07019E+012 
28150 9.01193E+012 
28200 8.95401E+012 
28250 8.89645E+012 
28300 8.83923E+012 
28350 8.78235E+012 
28400 8.72582E+012 
28450 8.66963E+012 
28500 8.61378E+012 
28550 8.55827E+012 
28600 8.50309E+012 
28650 8.44825E+012 
28700 8.39374E+012 
28750 8.33956E+012 
28800 8.2857E+012 
28850 8.23218E+012 
28900 8.17898E+012 
28950 8.1261E+012 
29000 8.07354E+012 
29050 8.02131E+012 
29100 7.96939E+012 
29150 7.91779E+012 
29200 7.86651E+012 
29250 7.81553E+012 
29300 7.76487E+012 
29350 7.71452E+012 
29400 7.66447E+012 
29450 7.61473E+012 
29500 7.5653E+012 
29550 7.51617E+012 
29600 7.46734E+012 
29650 7.41881E+012 
29700 7.37057E+012 
29750 7.32263E+012 
29800 7.27499E+012 
29850 7.22764E+012 
29900 7.18058E+012 
29950 7.13381E+012 
30000 7.08733E+012 
30050 7.04114E+012 
30100 6.99523E+012 
30150 6.9496E+012 
30200 6.90426E+012 
30250 6.85919E+012 
30300 6.81441E+012 
30350 6.7699E+012 
30400 6.72566E+012 
30450 6.6817E+012 
30500 6.63802E+012 
30550 6.5946E+012 
30600 6.55145E+012 
30650 6.50857E+012 
30700 6.46596E+012 
30750 6.42361E+012 
30800 6.38152E+012 
30850 6.3397E+012 
30900 6.29813E+012 
30950 6.25683E+012 
31000 6.21578E+012 
31050 6.17499E+012 
31100 6.13445E+012 
31150 6.09416E+012 
31200 6.05413E+012 
31250 6.01435E+012 
31300 5.97481E+012 
31350 5.93553E+012 
31400 5.89648E+012 
31450 5.85769E+012 
31500 5.81913E+012 
31550 5.78082E+012 
31600 5.74275E+012 
31650 5.70491E+012 
31700 5.66732E+012 
31750 5.62996E+012 
31800 5.59283E+012 
31850 5.55594E+012 
31900 5.51928E+012 
31950 5.48285E+012 
32000 5.44665E+012 
32050 5.41067E+012 
32100 5.37493E+012 
32150 5.33941E+012 
32200 5.30411E+012 
32250 5.26904E+012 
32300 5.23418E+012 
32350 5.19955E+012 
32400 5.16514E+012 
32450 5.13094E+012 
32500 5.09696E+012 
32550 5.0632E+012 
32600 5.02965E+012 
32650 4.99631E+012 
32700 4.96318E+012 
32750 4.93026E+012 
32800 4.89756E+012 
32850 4.86505E+012 
32900 4.83276E+012 
32950 4.80067E+012 
33000 4.76879E+012 
33050 4.7371E+012 
33100 4.70562E+012 
33150 4.67434E+012 
33200 4.64326E+012 
33250 4.61237E+012 
33300 4.58169E+012 
33350 4.5512E+012 
33400 4.5209E+012 
33450 4.49079E+012 
33500 4.46088E+012 
33550 4.43116E+012 
33600 4.40163E+012 
33650 4.37229E+012 
33700 4.34313E+012 
33750 4.31417E+012 
33800 4.28538E+012 
33850 4.25679E+012 
33900 4.22837E+012 
33950 4.20014E+012 
34000 4.17208E+012 
34050 4.14421E+012 
34100 4.11652E+012 
34150 4.089E+012 
34200 4.06166E+012 
34250 4.0345E+012 
34300 4.00751E+012 
34350 3.9807E+012 
34400 3.95406E+012 
34450 3.92758E+012 
34500 3.90128E+012 
34550 3.87515E+012 
34600 3.84919E+012 
34650 3.82339E+012 
34700 3.79776E+012 
34750 3.7723E+012 
34800 3.747E+012 
34850 3.72186E+012 
34900 3.69688E+012 
34950 3.67207E+012 
35000 3.64742E+012 
35050 3.62293E+012 
35100 3.59859E+012 
35150 3.57441E+012 
35200 3.55039E+012 
35250 3.52653E+012 
35300 3.50282E+012 
35350 3.47926E+012 
35400 3.45585E+012 
35450 3.4326E+012 
35500 3.4095E+012 
35550 3.38655E+012 
35600 3.36374E+012 
35650 3.34109E+012 
35700 3.31858E+012 
35750 3.29622E+012 
35800 3.274E+012 
35850 3.25193E+012 
35900 3.23E+012 
35950 3.20822E+012 
36000 3.18657E+012 
36050 3.16507E+012 
36100 3.14371E+012 
36150 3.12248E+012 
36200 3.1014E+012 
36250 3.08045E+012 
36300 3.05964E+012 
36350 3.03896E+012 
36400 3.01843E+012 
36450 2.99802E+012 
36500 2.97775E+012 
36550 2.95761E+012 
36600 2.9376E+012 
36650 2.91772E+012 
36700 2.89797E+012 
36750 2.87836E+012 
36800 2.85886E+012 
36850 2.8395E+012 
36900 2.82027E+012 
36950 2.80116E+012 
37000 2.78217E+012 
37050 2.76331E+012 
37100 2.74458E+012 
37150 2.72597E+012 
37200 2.70747E+012 
37250 2.68911E+012 
37300 2.67086E+012 
37350 2.65273E+012 
37400 2.63472E+012 
37450 2.61683E+012 
37500 2.59905E+012 
37550 2.5814E+012 
37600 2.56386E+012 
37650 2.54643E+012 
37700 2.52912E+012 
37750 2.51193E+012 
37800 2.49484E+012 
37850 2.47787E+012 
37900 2.46102E+012 
37950 2.44427E+012 
38000 2.42763E+012 
38050 2.41111E+012 
38100 2.39469E+012 
38150 2.37838E+012 
38200 2.36218E+012 
38250 2.34608E+012 
38300 2.33009E+012 
38350 2.31421E+012 
38400 2.29844E+012 
38450 2.28276E+012 
38500 2.26719E+012 
38550 2.25173E+012 
38600 2.23636E+012 
38650 2.2211E+012 
38700 2.20594E+012 
38750 2.19088E+012 
38800 2.17592E+012 
38850 2.16106E+012 
38900 2.1463E+012 
38950 2.13163E+012 
39000 2.11706E+012 
39050 2.10259E+012 
39100 2.08822E+012 
39150 2.07394E+012 
39200 2.05976E+012 
39250 2.04567E+012 
39300 2.03167E+012 
39350 2.01777E+012 
39400 2.00396E+012 
39450 1.99024E+012 
39500 1.97661E+012 
39550 1.96307E+012 
39600 1.94963E+012 
39650 1.93627E+012 
39700 1.923E+012 
39750 1.90982E+012 
39800 1.89673E+012 
39850 1.88373E+012 
39900 1.87081E+012 
39950 1.85798E+012 
40000 1.84523E+012 
40050 1.83257E+012 
40100 1.82E+012 
40150 1.8075E+012 
40200 1.7951E+012 
40250 1.78277E+012 
40300 1.77053E+012 
40350 1.75837E+012 
40400 1.74629E+012 
40450 1.73429E+012 
40500 1.72237E+012 
40550 1.71053E+012 
40600 1.69877E+012 
40650 1.68709E+012 
40700 1.67548E+012 
40750 1.66396E+012 
40800 1.65251E+012 
40850 1.64114E+012 
40900 1.62985E+012 
40950 1.61863E+012 
41000 1.60748E+012 
41050 1.59641E+012 
41100 1.58542E+012 
41150 1.5745E+012 
41200 1.56365E+012 
41250 1.55288E+012 
41300 1.54218E+012 
41350 1.53154E+012 
41400 1.52099E+012 
41450 1.5105E+012 
41500 1.50008E+012 
41550 1.48973E+012 
41600 1.47946E+012 
41650 1.46925E+012 
41700 1.45911E+012 
41750 1.44904E+012 
41800 1.43903E+012 
41850 1.4291E+012 
41900 1.41923E+012 
41950 1.40942E+012 
42000 1.39969E+012 
42050 1.39002E+012 
42100 1.38041E+012 
42150 1.37087E+012 
42200 1.3614E+012 
42250 1.35198E+012 
42300 1.34263E+012 
42350 1.33335E+012 
42400 1.32412E+012 
42450 1.31496E+012 
42500 1.30587E+012 
42550 1.29683E+012 
42600 1.28785E+012 
42650 1.27894E+012 
42700 1.27008E+012 
42750 1.26129E+012 
42800 1.25255E+012 
42850 1.24387E+012 
42900 1.23526E+012 
42950 1.2267E+012 
43000 1.21819E+012 
43050 1.20975E+012 
43100 1.20136E+012 
43150 1.19304E+012 
43200 1.18476E+012 
43250 1.17654E+012 
43300 1.16838E+012 
43350 1.16028E+012 
43400 1.15222E+012 
43450 1.14423E+012 
43500 1.13629E+012 
43550 1.1284E+012 
43600 1.12056E+012 
43650 1.11278E+012 
43700 1.10505E+012 
43750 1.09738E+012 
43800 1.08975E+012 
43850 1.08218E+012 
43900 1.07466E+012 
43950 1.06719E+012 
44000 1.05977E+012 
44050 1.0524E+012 
44100 1.04509E+012 
44150 1.03782E+012 
44200 1.0306E+012 
44250 1.02343E+012 
44300 1.01631E+012 
44350 1.00924E+012 
44400 1.00221E+012 
44450 9.95236E+011 
44500 9.88307E+011 
44550 9.81426E+011 
44600 9.74591E+011 
44650 9.67804E+011 
44700 9.61062E+011 
44750 9.54367E+011 
44800 9.47717E+011 
44850 9.41112E+011 
44900 9.34553E+011 
44950 9.28038E+011 
45000 9.21568E+011 
45050 9.15142E+011 
45100 9.08761E+011 
45150 9.02422E+011 
45200 8.96127E+011 
45250 8.89875E+011 
45300 8.83666E+011 
45350 8.775E+011 
45400 8.71375E+011 
45450 8.65292E+011 
45500 8.59251E+011 
45550 8.53252E+011 
45600 8.47293E+011 
45650 8.41375E+011 
45700 8.35498E+011 
45750 8.29661E+011 
45800 8.23864E+011 
45850 8.18107E+011 
45900 8.12389E+011 
45950 8.0671E+011 
46000 8.01071E+011 
46050 7.9547E+011 
46100 7.89907E+011 
46150 7.84383E+011 
46200 7.78896E+011 
46250 7.73448E+011 
46300 7.68036E+011 
46350 7.62662E+011 
46400 7.57325E+011 
46450 7.52024E+011 
46500 7.4676E+011 
46550 7.41531E+011 
46600 7.36339E+011 
46650 7.31183E+011 
46700 7.26061E+011 
46750 7.20976E+011 
46800 7.15925E+011 
46850 7.10909E+011 
46900 7.05927E+011 
46950 7.0098E+011 
47000 6.96066E+011 
47050 6.91187E+011 
47100 6.86341E+011 
47150 6.81528E+011 
47200 6.76749E+011 
47250 6.72002E+011 
47300 6.67289E+011 
47350 6.62607E+011 
47400 6.57958E+011 
47450 6.53341E+011 
47500 6.48756E+011 
47550 6.44202E+011 
47600 6.3968E+011 
47650 6.35189E+011 
47700 6.30729E+011 
47750 6.263E+011 
47800 6.21901E+011 
47850 6.17533E+011 
47900 6.13195E+011 
47950 6.08887E+011 
48000 6.04608E+011 
48050 6.00359E+011 
48100 5.9614E+011 
48150 5.9195E+011 
48200 5.87788E+011 
48250 5.83655E+011 
48300 5.79551E+011 
48350 5.75475E+011 
48400 5.71428E+011 
48450 5.67408E+011 
48500 5.63417E+011 
48550 5.59452E+011 
48600 5.55516E+011 
48650 5.51606E+011 
48700 5.47724E+011 
48750 5.43868E+011 
48800 5.40039E+011 
48850 5.36237E+011 
48900 5.32461E+011 
48950 5.28711E+011 
49000 5.24987E+011 
49050 5.21289E+011 
49100 5.17617E+011 
49150 5.1397E+011 
49200 5.10348E+011 
49250 5.06751E+011 
49300 5.0318E+011 
49350 4.99633E+011 
49400 4.9611E+011 
49450 4.92612E+011 
49500 4.89139E+011 
49550 4.85689E+011 
49600 4.82264E+011 
49650 4.78862E+011 
49700 4.75484E+011 
49750 4.72129E+011 
49800 4.68798E+011 
49850 4.65489E+011 
49900 4.62204E+011 
49950 4.58942E+011 
50000 4.55702E+011 
50050 4.52485E+011 
50100 4.4929E+011 
50150 4.46117E+011 
50200 4.42966E+011 
50250 4.39838E+011 
50300 4.36731E+011 
50350 4.33645E+011 
50400 4.30582E+011 
50450 4.27539E+011 
50500 4.24518E+011 
50550 4.21517E+011 
50600 4.18538E+011 
50650 4.15579E+011 
50700 4.12641E+011 
50750 4.09723E+011 
50800 4.06826E+011 
50850 4.03949E+011 
50900 4.01091E+011 
50950 3.98254E+011 
51000 3.95437E+011 
51050 3.92639E+011 
51100 3.89861E+011 
51150 3.87102E+011 
51200 3.84362E+011 
51250 3.81641E+011 
51300 3.7894E+011 
51350 3.76257E+011 
51400 3.73593E+011 
51450 3.70947E+011 
51500 3.68321E+011 
51550 3.65712E+011 
51600 3.63121E+011 
51650 3.60549E+011 
51700 3.57995E+011 
51750 3.55458E+011 
51800 3.52939E+011 
51850 3.50438E+011 
51900 3.47954E+011 
51950 3.45488E+011 
52000 3.43039E+011 
52050 3.40607E+011 
52100 3.38192E+011 
52150 3.35793E+011 
52200 3.33412E+011 
52250 3.31047E+011 
52300 3.28699E+011 
52350 3.26367E+011 
52400 3.24052E+011 
52450 3.21752E+011 
52500 3.19469E+011 
52550 3.17202E+011 
52600 3.14951E+011 
52650 3.12715E+011 
52700 3.10495E+011 
52750 3.08291E+011 
52800 3.06102E+011 
52850 3.03928E+011 
52900 3.0177E+011 
52950 2.99626E+011 
53000 2.97498E+011 
53050 2.95385E+011 
53100 2.93286E+011 
53150 2.91203E+011 
53200 2.89133E+011 
53250 2.87079E+011 
53300 2.85038E+011 
53350 2.83012E+011 
53400 2.81001E+011 
53450 2.79003E+011 
53500 2.77019E+011 
53550 2.7505E+011 
53600 2.73094E+011 
53650 2.71152E+011 
53700 2.69223E+011 
53750 2.67308E+011 
53800 2.65406E+011 
53850 2.63518E+011 
53900 2.61643E+011 
53950 2.59781E+011 
54000 2.57933E+011 
54050 2.56097E+011 
54100 2.54274E+011 
54150 2.52464E+011 
54200 2.50667E+011 
54250 2.48882E+011 
54300 2.4711E+011 
54350 2.45351E+011 
54400 2.43603E+011 
54450 2.41868E+011 
54500 2.40145E+011 
54550 2.38435E+011 
54600 2.36736E+011 
54650 2.3505E+011 
54700 2.33375E+011 
54750 2.31712E+011 
54800 2.3006E+011 
54850 2.28421E+011 
54900 2.26792E+011 
54950 2.25176E+011 
55000 2.2357E+011 
55050 2.21976E+011 
55100 2.20394E+011 
55150 2.18822E+011 
55200 2.17261E+011 
55250 2.15712E+011 
55300 2.14173E+011 
55350 2.12645E+011 
55400 2.11128E+011 
55450 2.09622E+011 
55500 2.08126E+011 
55550 2.06641E+011 
55600 2.05166E+011 
55650 2.03702E+011 
55700 2.02248E+011 
55750 2.00804E+011 
55800 1.99371E+011 
55850 1.97947E+011 
55900 1.96534E+011 
55950 1.9513E+011 
56000 1.93737E+011 
56050 1.92353E+011 
56100 1.90979E+011 
56150 1.89615E+011 
56200 1.8826E+011 
56250 1.86916E+011 
56300 1.8558E+011 
56350 1.84254E+011 
56400 1.82937E+011 
56450 1.8163E+011 
56500 1.80331E+011 
56550 1.79043E+011 
56600 1.77763E+011 
56650 1.76492E+011 
56700 1.7523E+011 
56750 1.73977E+011 
56800 1.72733E+011 
56850 1.71498E+011 
56900 1.70271E+011 
56950 1.69053E+011 
57000 1.67844E+011 
57050 1.66643E+011 
57100 1.65451E+011 
57150 1.64267E+011 
57200 1.63092E+011 
57250 1.61924E+011 
57300 1.60766E+011 
57350 1.59615E+011 
57400 1.58472E+011 
57450 1.57338E+011 
57500 1.56212E+011 
57550 1.55093E+011 
57600 1.53983E+011 
57650 1.5288E+011 
57700 1.51785E+011 
57750 1.50698E+011 
57800 1.49619E+011 
57850 1.48547E+011 
57900 1.47483E+011 
57950 1.46426E+011 
58000 1.45377E+011 
58050 1.44336E+011 
58100 1.43301E+011 
58150 1.42274E+011 
58200 1.41255E+011 
58250 1.40243E+011 
58300 1.39237E+011 
58350 1.38239E+011 
58400 1.37248E+011 
58450 1.36264E+011 
58500 1.35287E+011 
58550 1.34317E+011 
58600 1.33354E+011 
58650 1.32397E+011 
58700 1.31448E+011 
58750 1.30505E+011 
58800 1.29569E+011 
58850 1.28639E+011 
58900 1.27716E+011 
58950 1.268E+011 
59000 1.2589E+011 
59050 1.24987E+011 
59100 1.2409E+011 
59150 1.23199E+011 
59200 1.22315E+011 
59250 1.21437E+011 
59300 1.20565E+011 
59350 1.19699E+011 
59400 1.1884E+011 
59450 1.17987E+011 
59500 1.1714E+011 
59550 1.16298E+011 
59600 1.15463E+011 
59650 1.14634E+011 
59700 1.1381E+011 
59750 1.12993E+011 
59800 1.12181E+011 
59850 1.11375E+011 
59900 1.10575E+011 
59950 1.0978E+011 
60000 1.08992E+011 
60050 1.08208E+011 
60100 1.07431E+011 
60150 1.06658E+011 
60200 1.05892E+011 
60250 1.05131E+011 
60300 1.04375E+011 
60350 1.03624E+011 
60400 1.02879E+011 
60450 1.0214E+011 
60500 1.01405E+011 
60550 1.00676E+011 
60600 9.99517E+010 
60650 9.92328E+010 
60700 9.85191E+010 
60750 9.78104E+010 
60800 9.71067E+010 
60850 9.64081E+010 
60900 9.57144E+010 
60950 9.50257E+010 
61000 9.43419E+010 
61050 9.36629E+010 
61100 9.29889E+010 
61150 9.23196E+010 
61200 9.1655E+010 
61250 9.09953E+010 
61300 9.03402E+010 
61350 8.96898E+010 
61400 8.9044E+010 
61450 8.84029E+010 
61500 8.77663E+010 
61550 8.71342E+010 
61600 8.65067E+010 
61650 8.58837E+010 
61700 8.5265E+010 
61750 8.46509E+010 
61800 8.4041E+010 
61850 8.34356E+010 
61900 8.28344E+010 
61950 8.22376E+010 
62000 8.1645E+010 
62050 8.10567E+010 
62100 8.04725E+010 
62150 7.98926E+010 
62200 7.93167E+010 
62250 7.8745E+010 
62300 7.81774E+010 
62350 7.76138E+010 
62400 7.70542E+010 
62450 7.64987E+010 
62500 7.59471E+010 
62550 7.53994E+010 
62600 7.48557E+010 
62650 7.43158E+010 
62700 7.37798E+010 
62750 7.32477E+010 
62800 7.27193E+010 
62850 7.21948E+010 
62900 7.16739E+010 
62950 7.11569E+010 
63000 7.06434E+010 
63050 7.01337E+010 
63100 6.96276E+010 
63150 6.91252E+010 
63200 6.86263E+010 
63250 6.8131E+010 
63300 6.76393E+010 
63350 6.7151E+010 
63400 6.66663E+010 
63450 6.6185E+010 
63500 6.57072E+010 
63550 6.52328E+010 
63600 6.47617E+010 
63650 6.42941E+010 
63700 6.38298E+010 
63750 6.33688E+010 
63800 6.29112E+010 
63850 6.24568E+010 
63900 6.20056E+010 
63950 6.15578E+010 
64000 6.1113E+010 
64050 6.06715E+010 
64100 6.02332E+010 
64150 5.9798E+010 
64200 5.93659E+010 
64250 5.89369E+010 
64300 5.8511E+010 
64350 5.80881E+010 
64400 5.76683E+010 
64450 5.72515E+010 
64500 5.68376E+010 
64550 5.64267E+010 
64600 5.60188E+010 
64650 5.56138E+010 
64700 5.52117E+010 
64750 5.48125E+010 
64800 5.44162E+010 
64850 5.40227E+010 
64900 5.3632E+010 
64950 5.32441E+010 
65000 5.2859E+010 
65050 5.24767E+010 
65100 5.20971E+010 
65150 5.17202E+010 
65200 5.1346E+010 
65250 5.09745E+010 
65300 5.06057E+010 
65350 5.02396E+010 
65400 4.9876E+010 
65450 4.95151E+010 
65500 4.91568E+010 
65550 4.8801E+010 
65600 4.84478E+010 
65650 4.80971E+010 
65700 4.7749E+010 
65750 4.74033E+010 
65800 4.70601E+010 
65850 4.67194E+010 
65900 4.63812E+010 
65950 4.60453E+010 
66000 4.57119E+010 
66050 4.53809E+010 
66100 4.50523E+010 
66150 4.4726E+010 
66200 4.4402E+010 
66250 4.40804E+010 
66300 4.37611E+010 
66350 4.34441E+010 
66400 4.31294E+010 
66450 4.2817E+010 
66500 4.25067E+010 
66550 4.21987E+010 
66600 4.1893E+010 
66650 4.15894E+010 
66700 4.1288E+010 
66750 4.09888E+010 
66800 4.06917E+010 
66850 4.03968E+010 
66900 4.0104E+010 
66950 3.98133E+010 
67000 3.95247E+010 
67050 3.92381E+010 
67100 3.89537E+010 
67150 3.86712E+010 
67200 3.83909E+010 
67250 3.81125E+010 
67300 3.78361E+010 
67350 3.75617E+010 
67400 3.72893E+010 
67450 3.70189E+010 
67500 3.67504E+010 
67550 3.64838E+010 
67600 3.62192E+010 
67650 3.59564E+010 
67700 3.56956E+010 
67750 3.54366E+010 
67800 3.51795E+010 
67850 3.49242E+010 
67900 3.46708E+010 
67950 3.44192E+010 
68000 3.41695E+010 
68050 3.39215E+010 
68100 3.36753E+010 
68150 3.34309E+010 
68200 3.31882E+010 
68250 3.29473E+010 
68300 3.27081E+010 
68350 3.24707E+010 
68400 3.2235E+010 
68450 3.20009E+010 
68500 3.17686E+010 
68550 3.15379E+010 
68600 3.13089E+010 
68650 3.10815E+010 
68700 3.08558E+010 
68750 3.06317E+010 
68800 3.04093E+010 
68850 3.01884E+010 
68900 2.99691E+010 
68950 2.97514E+010 
69000 2.95353E+010 
69050 2.93207E+010 
69100 2.91077E+010 
69150 2.88962E+010 
69200 2.86863E+010 
69250 2.84778E+010 
69300 2.82709E+010 
69350 2.80654E+010 
69400 2.78615E+010 
69450 2.7659E+010 
69500 2.7458E+010 
69550 2.72584E+010 
69600 2.70603E+010 
69650 2.68636E+010 
69700 2.66683E+010 
69750 2.64744E+010 
69800 2.62819E+010 
69850 2.60908E+010 
69900 2.59011E+010 
69950 2.57128E+010 
70000 2.55258E+010 
70050 2.53402E+010 
70100 2.51559E+010 
70150 2.4973E+010 
70200 2.47913E+010 
70250 2.4611E+010 
70300 2.4432E+010 
70350 2.42543E+010 
70400 2.40778E+010 
70450 2.39027E+010 
70500 2.37288E+010 
70550 2.35561E+010 
70600 2.33848E+010 
70650 2.32146E+010 
70700 2.30457E+010 
70750 2.2878E+010 
70800 2.27115E+010 
70850 2.25462E+010 
70900 2.23821E+010 
70950 2.22192E+010 
71000 2.20575E+010 
71050 2.18969E+010 
71100 2.17375E+010 
71150 2.15793E+010 
71200 2.14222E+010 
71250 2.12662E+010 
71300 2.11114E+010 
71350 2.09577E+010 
71400 2.08051E+010 
71450 2.06536E+010 
71500 2.05032E+010 
71550 2.03539E+010 
71600 2.02056E+010 
71650 2.00585E+010 
71700 1.99124E+010 
71750 1.97674E+010 
71800 1.96234E+010 
71850 1.94804E+010 
71900 1.93385E+010 
71950 1.91976E+010 
72000 1.90578E+010 
72050 1.89189E+010 
72100 1.87811E+010 
72150 1.86442E+010 
72200 1.85084E+010 
72250 1.83735E+010 
72300 1.82396E+010 
72350 1.81067E+010 
72400 1.79747E+010 
72450 1.78437E+010 
72500 1.77137E+010 
72550 1.75845E+010 
72600 1.74564E+010 
72650 1.73291E+010 
72700 1.72028E+010 
72750 1.70774E+010 
72800 1.69529E+010 
72850 1.68293E+010 
72900 1.67065E+010 
72950 1.65847E+010 
73000 1.64638E+010 
73050 1.63437E+010 
73100 1.62245E+010 
73150 1.61062E+010 
73200 1.59888E+010 
73250 1.58721E+010 
73300 1.57564E+010 
73350 1.56415E+010 
73400 1.55274E+010 
73450 1.54141E+010 
73500 1.53016E+010 
73550 1.519E+010 
73600 1.50792E+010 
73650 1.49692E+010 
73700 1.48599E+010 
73750 1.47515E+010 
73800 1.46439E+010 
73850 1.4537E+010 
73900 1.44309E+010 
73950 1.43256E+010 
74000 1.4221E+010 
74050 1.41173E+010 
74100 1.40142E+010 
74150 1.39119E+010 
74200 1.38104E+010 
74250 1.37096E+010 
74300 1.36095E+010 
74350 1.35101E+010 
74400 1.34115E+010 
74450 1.33136E+010 
74500 1.32164E+010 
74550 1.31199E+010 
74600 1.30241E+010 
74650 1.2929E+010 
74700 1.28345E+010 
74750 1.27408E+010 
74800 1.26478E+010 
74850 1.25554E+010 
74900 1.24637E+010 
74950 1.23727E+010 
75000 1.22823E+010 
75050 1.21926E+010 
75100 1.21035E+010 
75150 1.20151E+010 
75200 1.19273E+010 
75250 1.18402E+010 
75300 1.17537E+010 
75350 1.16678E+010 
75400 1.15825E+010 
75450 1.14979E+010 
75500 1.14139E+010 
75550 1.13305E+010 
75600 1.12477E+010 
75650 1.11655E+010 
75700 1.10839E+010 
75750 1.10029E+010 
75800 1.09224E+010 
75850 1.08426E+010 
75900 1.07633E+010 
75950 1.06847E+010 
76000 1.06066E+010 
76050 1.0529E+010 
76100 1.0452E+010 
76150 1.03756E+010 
76200 1.02998E+010 
76250 1.02244E+010 
76300 1.01497E+010 
76350 1.00755E+010 
76400 1.00018E+010 
76450 9.92864E+009 
76500 9.85603E+009 
76550 9.78395E+009 
76600 9.71239E+009 
76650 9.64136E+009 
76700 9.57084E+009 
76750 9.50083E+009 
76800 9.43133E+009 
76850 9.36234E+009 
76900 9.29385E+009 
76950 9.22586E+009 
77000 9.15836E+009 
77050 9.09136E+009 
77100 9.02484E+009 
77150 8.9588E+009 
77200 8.89325E+009 
77250 8.82818E+009 
77300 8.76357E+009 
77350 8.69944E+009 
77400 8.63578E+009 
77450 8.57258E+009 
77500 8.50983E+009 
77550 8.44755E+009 
77600 8.38572E+009 
77650 8.32434E+009 
77700 8.26341E+009 
77750 8.20291E+009 
77800 8.14286E+009 
77850 8.08325E+009 
77900 8.02408E+009 
77950 7.96533E+009 
78000 7.90701E+009 
78050 7.84912E+009 
78100 7.79164E+009 
78150 7.73459E+009 
78200 7.67795E+009 
78250 7.62173E+009 
78300 7.56591E+009 
78350 7.5105E+009 
78400 7.4555E+009 
78450 7.40089E+009 
78500 7.34669E+009 
78550 7.29288E+009 
78600 7.23946E+009 
78650 7.18643E+009 
78700 7.13378E+009 
78750 7.08152E+009 
78800 7.02965E+009 
78850 6.97814E+009 
78900 6.92702E+009 
78950 6.87627E+009 
79000 6.82589E+009 
79050 6.77587E+009 
79100 6.72622E+009 
79150 6.67693E+009 
79200 6.628E+009 
79250 6.57943E+009 
79300 6.53121E+009 
79350 6.48335E+009 
79400 6.43583E+009 
79450 6.38866E+009 
79500 6.34184E+009 
79550 6.29535E+009 
79600 6.24921E+009 
79650 6.2034E+009 
79700 6.15792E+009 
79750 6.11278E+009 
79800 6.06796E+009 
79850 6.02348E+009 
79900 5.97932E+009 
79950 5.93548E+009 
80000 5.89196E+009 
80050 5.84875E+009 
80100 5.80587E+009 
80150 5.76329E+009 
80200 5.72103E+009 
80250 5.67907E+009 
80300 5.63743E+009 
80350 5.59608E+009 
80400 5.55504E+009 
80450 5.51429E+009 
80500 5.47385E+009 
80550 5.4337E+009 
80600 5.39384E+009 
80650 5.35427E+009 
80700 5.315E+009 
80750 5.27601E+009 
80800 5.2373E+009 
80850 5.19888E+009 
80900 5.16074E+009 
80950 5.12287E+009 
81000 5.08528E+009 
81050 5.04797E+009 
81100 5.01093E+009 
81150 4.97416E+009 
81200 4.93766E+009 
81250 4.90142E+009 
81300 4.86545E+009 
81350 4.82975E+009 
81400 4.7943E+009 
81450 4.75911E+009 
81500 4.72418E+009 
81550 4.68951E+009 
81600 4.65509E+009 
81650 4.62092E+009 
81700 4.58699E+009 
81750 4.55332E+009 
81800 4.5199E+009 
81850 4.48671E+009 
81900 4.45377E+009 
81950 4.42107E+009 
82000 4.38861E+009 
82050 4.35639E+009 
82100 4.3244E+009 
82150 4.29265E+009 
82200 4.26113E+009 
82250 4.22984E+009 
82300 4.19878E+009 
82350 4.16794E+009 
82400 4.13733E+009 
82450 4.10695E+009 
82500 4.07678E+009 
82550 4.04684E+009 
82600 4.01711E+009 
82650 3.98761E+009 
82700 3.95832E+009 
82750 3.92924E+009 
82800 3.90038E+009 
82850 3.87173E+009 
82900 3.84328E+009 
82950 3.81505E+009 
83000 3.78702E+009 
83050 3.75919E+009 
83100 3.73157E+009 
83150 3.70416E+009 
83200 3.67694E+009 
83250 3.64992E+009 
83300 3.6231E+009 
83350 3.59648E+009 
83400 3.57005E+009 
83450 3.54381E+009 
83500 3.51777E+009 
83550 3.49191E+009 
83600 3.46625E+009 
83650 3.44077E+009 
83700 3.41548E+009 
83750 3.39038E+009 
83800 3.36546E+009 
83850 3.34072E+009 
83900 3.31616E+009 
83950 3.29178E+009 
84000 3.26758E+009 
84050 3.24356E+009 
84100 3.21971E+009 
84150 3.19604E+009 
84200 3.17254E+009 
84250 3.14922E+009 
84300 3.12606E+009 
84350 3.10308E+009 
84400 3.08026E+009 
84450 3.05761E+009 
84500 3.03512E+009 
84550 3.0128E+009 
84600 2.99064E+009 
84650 2.96865E+009 
84700 2.94682E+009 
84750 2.92514E+009 
84800 2.90363E+009 
84850 2.88227E+009 
84900 2.86107E+009 
84950 2.84003E+009 
85000 2.81913E+009 
85050 2.7984E+009 
85100 2.77781E+009 
85150 2.75738E+009 
85200 2.73709E+009 
85250 2.71695E+009 
85300 2.69696E+009 
85350 2.67712E+009 
85400 2.65742E+009 
85450 2.63787E+009 
85500 2.61846E+009 
85550 2.59919E+009 
85600 2.58007E+009 
85650 2.56108E+009 
85700 2.54223E+009 
85750 2.52353E+009 
85800 2.50495E+009 
85850 2.48652E+009 
85900 2.46822E+009 
85950 2.45005E+009 
86000 2.43202E+009 
86050 2.41412E+009 
86100 2.39635E+009 
86150 2.37871E+009 
86200 2.3612E+009 
86250 2.34382E+009 
86300 2.32656E+009 
86350 2.30943E+009 
86400 2.29243E+009 
86450 2.27556E+009 
86500 2.2588E+009 
86550 2.24217E+009 
86600 2.22566E+009 
86650 2.20928E+009 
86700 2.19301E+009 
86750 2.17686E+009 
86800 2.16083E+009 
86850 2.14492E+009 
86900 2.12912E+009 
86950 2.11344E+009 
87000 2.09788E+009 
87050 2.08243E+009 
87100 2.06709E+009 
87150 2.05187E+009 
87200 2.03675E+009 
87250 2.02175E+009 
87300 2.00686E+009 
87350 1.99208E+009 
87400 1.97741E+009 
87450 1.96284E+009 
87500 1.94838E+009 
87550 1.93403E+009 
87600 1.91978E+009 
87650 1.90563E+009 
87700 1.8916E+009 
87750 1.87766E+009 
87800 1.86383E+009 
87850 1.85009E+009 
87900 1.83646E+009 
87950 1.82293E+009 
88000 1.8095E+009 
88050 1.79616E+009 
88100 1.78293E+009 
88150 1.76979E+009 
88200 1.75675E+009 
88250 1.7438E+009 
88300 1.73095E+009 
88350 1.71819E+009 
88400 1.70553E+009 
88450 1.69296E+009 
88500 1.68048E+009 
88550 1.66809E+009 
88600 1.6558E+009 
88650 1.64359E+009 
88700 1.63148E+009 
88750 1.61945E+009 
88800 1.60751E+009 
88850 1.59566E+009 
88900 1.5839E+009 
88950 1.57222E+009 
89000 1.56063E+009 
89050 1.54912E+009 
89100 1.5377E+009 
89150 1.52636E+009 
89200 1.51511E+009 
89250 1.50394E+009 
89300 1.49285E+009 
89350 1.48184E+009 
89400 1.47091E+009 
89450 1.46007E+009 
89500 1.4493E+009 
89550 1.43861E+009 
89600 1.428E+009 
89650 1.41747E+009 
89700 1.40702E+009 
89750 1.39664E+009 
89800 1.38634E+009 
89850 1.37611E+009 
89900 1.36596E+009 
89950 1.35589E+009 
90000 1.34588E+009 
90050 1.33596E+009 
90100 1.3261E+009 
90150 1.31632E+009 
90200 1.30661E+009 
90250 1.29697E+009 
90300 1.2874E+009 
90350 1.2779E+009 
90400 1.26847E+009 
90450 1.25911E+009 
90500 1.24982E+009 
90550 1.2406E+009 
90600 1.23145E+009 
90650 1.22236E+009 
90700 1.21334E+009 
90750 1.20439E+009 
90800 1.1955E+009 
90850 1.18668E+009 
90900 1.17792E+009 
90950 1.16923E+009 
91000 1.1606E+009 
91050 1.15203E+009 
91100 1.14353E+009 
91150 1.13509E+009 
91200 1.12671E+009 
91250 1.1184E+009 
91300 1.11014E+009 
91350 1.10195E+009 
91400 1.09381E+009 
91450 1.08574E+009 
91500 1.07772E+009 
91550 1.06977E+009 
91600 1.06187E+009 
91650 1.05403E+009 
91700 1.04625E+009 
91750 1.03852E+009 
91800 1.03086E+009 
91850 1.02325E+009 
91900 1.01569E+009 
91950 1.00819E+009 
92000 1.00075E+009 
92050 9.93358E+008 
92100 9.86022E+008 
92150 9.78741E+008 
92200 9.71514E+008 
92250 9.64339E+008 
92300 9.57218E+008 
92350 9.50149E+008 
92400 9.43132E+008 
92450 9.36166E+008 
92500 9.29252E+008 
92550 9.22389E+008 
92600 9.15576E+008 
92650 9.08814E+008 
92700 9.02101E+008 
92750 8.95438E+008 
92800 8.88823E+008 
92850 8.82258E+008 
92900 8.7574E+008 
92950 8.69271E+008 
93000 8.62849E+008 
93050 8.56475E+008 
93100 8.50148E+008 
93150 8.43867E+008 
93200 8.37633E+008 
93250 8.31444E+008 
93300 8.25301E+008 
93350 8.19203E+008 
93400 8.1315E+008 
93450 8.07142E+008 
93500 8.01178E+008 
93550 7.95258E+008 
93600 7.89381E+008 
93650 7.83548E+008 
93700 7.77758E+008 
93750 7.7201E+008 
93800 7.66305E+008 
93850 7.60642E+008 
93900 7.5502E+008 
93950 7.4944E+008 
94000 7.43901E+008 
94050 7.38403E+008 
94100 7.32945E+008 
94150 7.27528E+008 
94200 7.2215E+008 
94250 7.16812E+008 
94300 7.11514E+008 
94350 7.06254E+008 
94400 7.01034E+008 
94450 6.95851E+008 
94500 6.90707E+008 
94550 6.85601E+008 
94600 6.80533E+008 
94650 6.75502E+008 
94700 6.70507E+008 
94750 6.6555E+008 
94800 6.60629E+008 
94850 6.55745E+008 
94900 6.50896E+008 
94950 6.46084E+008 
95000 6.41306E+008 
95050 6.36564E+008 
95100 6.31857E+008 
95150 6.27185E+008 
95200 6.22547E+008 
95250 6.17943E+008 
95300 6.13374E+008 
95350 6.08838E+008 
95400 6.04335E+008 
95450 5.99865E+008 
95500 5.95429E+008 
95550 5.91025E+008 
95600 5.86654E+008 
95650 5.82315E+008 
95700 5.78008E+008 
95750 5.73732E+008 
95800 5.69489E+008 
95850 5.65276E+008 
95900 5.61095E+008 
95950 5.56944E+008 
96000 5.52824E+008 
96050 5.48735E+008 
96100 5.44675E+008 
96150 5.40646E+008 
96200 5.36646E+008 
96250 5.32676E+008 
96300 5.28735E+008 
96350 5.24823E+008 
96400 5.2094E+008 
96450 5.17086E+008 
96500 5.1326E+008 
96550 5.09462E+008 
96600 5.05692E+008 
96650 5.0195E+008 
96700 4.98236E+008 
96750 4.94549E+008 
96800 4.9089E+008 
96850 4.87257E+008 
96900 4.83651E+008 
96950 4.80072E+008 
97000 4.76519E+008 
97050 4.72993E+008 
97100 4.69492E+008 
97150 4.66017E+008 
97200 4.62568E+008 
97250 4.59145E+008 
97300 4.55746E+008 
97350 4.52373E+008 
97400 4.49025E+008 
97450 4.45701E+008 
97500 4.42402E+008 
97550 4.39127E+008 
97600 4.35876E+008 
97650 4.3265E+008 
97700 4.29447E+008 
97750 4.26268E+008 
97800 4.23112E+008 
97850 4.1998E+008 
97900 4.1687E+008 
97950 4.13784E+008 
98000 4.1072E+008 
98050 4.07679E+008 
98100 4.04661E+008 
98150 4.01665E+008 
98200 3.98691E+008 
98250 3.95739E+008 
98300 3.92809E+008 
98350 3.899E+008 
98400 3.87013E+008 
98450 3.84147E+008 
98500 3.81302E+008 
98550 3.78478E+008 
98600 3.75676E+008 
98650 3.72894E+008 
98700 3.70132E+008 
98750 3.67391E+008 
98800 3.6467E+008 
98850 3.61969E+008 
98900 3.59288E+008 
98950 3.56627E+008 
99000 3.53986E+008 
99050 3.51364E+008 
99100 3.48761E+008 
99150 3.46178E+008 
99200 3.43614E+008 
99250 3.41068E+008 
99300 3.38542E+008 
99350 3.36034E+008 
99400 3.33545E+008 
99450 3.31074E+008 
99500 3.28621E+008 
99550 3.26186E+008 
99600 3.2377E+008 
99650 3.21371E+008 
99700 3.1899E+008 
99750 3.16627E+008 
99800 3.14281E+008 
99850 3.11953E+008 
99900 3.09641E+008 
99950 3.07347E+008 
100000 3.0507E+008 
