#F U:\Beamline I20\I20-2_EDE\Wigglers\xop\83mm-small-wiggler\EDE wiggler\1p2T-300mA-0p12x1p2mrad.dat
#C I20EDE 1.2T 300mA 0.12x1.2mrad
#S 1 File written by xplot on Tue Dec 07 18:17:41 2010
#N 2
#L    Energy [eV]  Flux [ph/s/0.1%bw]
50 8.34819E+012 
100 1.3241E+013 
150 1.73258E+013 
200 2.09502E+013 
250 2.42584E+013 
300 2.73282E+013 
350 3.02073E+013 
400 3.2928E+013 
450 3.55132E+013 
500 3.79801E+013 
550 4.0342E+013 
600 4.26094E+013 
650 4.47909E+013 
700 4.68935E+013 
750 4.89231E+013 
800 5.08849E+013 
850 5.27832E+013 
900 5.46219E+013 
950 5.64041E+013 
1000 5.8133E+013 
1050 5.98112E+013 
1100 6.14411E+013 
1150 6.30247E+013 
1200 6.4564E+013 
1250 6.60609E+013 
1300 6.7517E+013 
1350 6.89337E+013 
1400 7.03125E+013 
1450 7.16547E+013 
1500 7.29615E+013 
1550 7.42339E+013 
1600 7.54731E+013 
1650 7.66801E+013 
1700 7.78557E+013 
1750 7.90009E+013 
1800 8.01165E+013 
1850 8.12033E+013 
1900 8.22621E+013 
1950 8.32935E+013 
2000 8.42982E+013 
2050 8.5277E+013 
2100 8.62304E+013 
2150 8.71589E+013 
2200 8.80633E+013 
2250 8.8944E+013 
2300 8.98016E+013 
2350 9.06365E+013 
2400 9.14493E+013 
2450 9.22404E+013 
2500 9.30103E+013 
2550 9.37595E+013 
2600 9.44883E+013 
2650 9.51972E+013 
2700 9.58865E+013 
2750 9.65568E+013 
2800 9.72082E+013 
2850 9.78413E+013 
2900 9.84563E+013 
2950 9.90535E+013 
3000 9.96335E+013 
3050 1.00196E+014 
3100 1.00743E+014 
3150 1.01272E+014 
3200 1.01786E+014 
3250 1.02284E+014 
3300 1.02766E+014 
3350 1.03233E+014 
3400 1.03685E+014 
3450 1.04123E+014 
3500 1.04546E+014 
3550 1.04954E+014 
3600 1.05349E+014 
3650 1.05731E+014 
3700 1.06098E+014 
3750 1.06453E+014 
3800 1.06794E+014 
3850 1.07123E+014 
3900 1.07439E+014 
3950 1.07743E+014 
4000 1.08035E+014 
4050 1.08315E+014 
4100 1.08583E+014 
4150 1.0884E+014 
4200 1.09085E+014 
4250 1.09319E+014 
4300 1.09543E+014 
4350 1.09755E+014 
4400 1.09957E+014 
4450 1.10149E+014 
4500 1.1033E+014 
4550 1.10502E+014 
4600 1.10663E+014 
4650 1.10815E+014 
4700 1.10957E+014 
4750 1.1109E+014 
4800 1.11214E+014 
4850 1.11329E+014 
4900 1.11434E+014 
4950 1.11531E+014 
5000 1.1162E+014 
5050 1.117E+014 
5100 1.11771E+014 
5150 1.11835E+014 
5200 1.1189E+014 
5250 1.11938E+014 
5300 1.11977E+014 
5350 1.1201E+014 
5400 1.12034E+014 
5450 1.12051E+014 
5500 1.12061E+014 
5550 1.12064E+014 
5600 1.1206E+014 
5650 1.12049E+014 
5700 1.12031E+014 
5750 1.12007E+014 
5800 1.11976E+014 
5850 1.11938E+014 
5900 1.11894E+014 
5950 1.11844E+014 
6000 1.11788E+014 
6050 1.11726E+014 
6100 1.11658E+014 
6150 1.11585E+014 
6200 1.11505E+014 
6250 1.1142E+014 
6300 1.1133E+014 
6350 1.11234E+014 
6400 1.11133E+014 
6450 1.11026E+014 
6500 1.10915E+014 
6550 1.10799E+014 
6600 1.10677E+014 
6650 1.10551E+014 
6700 1.1042E+014 
6750 1.10285E+014 
6800 1.10145E+014 
6850 1.1E+014 
6900 1.09851E+014 
6950 1.09697E+014 
7000 1.0954E+014 
7050 1.09378E+014 
7100 1.09212E+014 
7150 1.09043E+014 
7200 1.08869E+014 
7250 1.08691E+014 
7300 1.0851E+014 
7350 1.08325E+014 
7400 1.08136E+014 
7450 1.07944E+014 
7500 1.07748E+014 
7550 1.07549E+014 
7600 1.07346E+014 
7650 1.07141E+014 
7700 1.06931E+014 
7750 1.06719E+014 
7800 1.06504E+014 
7850 1.06286E+014 
7900 1.06064E+014 
7950 1.0584E+014 
8000 1.05613E+014 
8050 1.05383E+014 
8100 1.05151E+014 
8150 1.04915E+014 
8200 1.04678E+014 
8250 1.04437E+014 
8300 1.04194E+014 
8350 1.03949E+014 
8400 1.03701E+014 
8450 1.03451E+014 
8500 1.03199E+014 
8550 1.02944E+014 
8600 1.02688E+014 
8650 1.02429E+014 
8700 1.02168E+014 
8750 1.01905E+014 
8800 1.0164E+014 
8850 1.01373E+014 
8900 1.01104E+014 
8950 1.00834E+014 
9000 1.00561E+014 
9050 1.00287E+014 
9100 1.00011E+014 
9150 9.97338E+013 
9200 9.94547E+013 
9250 9.9174E+013 
9300 9.88918E+013 
9350 9.86081E+013 
9400 9.83229E+013 
9450 9.80364E+013 
9500 9.77484E+013 
9550 9.74591E+013 
9600 9.71686E+013 
9650 9.68768E+013 
9700 9.65837E+013 
9750 9.62895E+013 
9800 9.59942E+013 
9850 9.56977E+013 
9900 9.54002E+013 
9950 9.51016E+013 
10000 9.4802E+013 
10050 9.45015E+013 
10100 9.42E+013 
10150 9.38977E+013 
10200 9.35944E+013 
10250 9.32903E+013 
10300 9.29854E+013 
10350 9.26798E+013 
10400 9.23734E+013 
10450 9.20663E+013 
10500 9.17585E+013 
10550 9.145E+013 
10600 9.11409E+013 
10650 9.08312E+013 
10700 9.0521E+013 
10750 9.02102E+013 
10800 8.98989E+013 
10850 8.95871E+013 
10900 8.92748E+013 
10950 8.89621E+013 
11000 8.8649E+013 
11050 8.83355E+013 
11100 8.80217E+013 
11150 8.77075E+013 
11200 8.7393E+013 
11250 8.70782E+013 
11300 8.67631E+013 
11350 8.64478E+013 
11400 8.61323E+013 
11450 8.58166E+013 
11500 8.55007E+013 
11550 8.51847E+013 
11600 8.48685E+013 
11650 8.45522E+013 
11700 8.42358E+013 
11750 8.39194E+013 
11800 8.36029E+013 
11850 8.32863E+013 
11900 8.29698E+013 
11950 8.26532E+013 
12000 8.23367E+013 
12050 8.20203E+013 
12100 8.17039E+013 
12150 8.13875E+013 
12200 8.10713E+013 
12250 8.07552E+013 
12300 8.04392E+013 
12350 8.01234E+013 
12400 7.98077E+013 
12450 7.94922E+013 
12500 7.91769E+013 
12550 7.88619E+013 
12600 7.8547E+013 
12650 7.82324E+013 
12700 7.79181E+013 
12750 7.7604E+013 
12800 7.72902E+013 
12850 7.69767E+013 
12900 7.66635E+013 
12950 7.63507E+013 
13000 7.60382E+013 
13050 7.57261E+013 
13100 7.54143E+013 
13150 7.51029E+013 
13200 7.47919E+013 
13250 7.44813E+013 
13300 7.41711E+013 
13350 7.38614E+013 
13400 7.35521E+013 
13450 7.32432E+013 
13500 7.29348E+013 
13550 7.26269E+013 
13600 7.23195E+013 
13650 7.20125E+013 
13700 7.17061E+013 
13750 7.14002E+013 
13800 7.10948E+013 
13850 7.079E+013 
13900 7.04857E+013 
13950 7.01819E+013 
14000 6.98787E+013 
14050 6.95762E+013 
14100 6.92741E+013 
14150 6.89727E+013 
14200 6.86719E+013 
14250 6.83717E+013 
14300 6.80721E+013 
14350 6.77731E+013 
14400 6.74747E+013 
14450 6.71771E+013 
14500 6.688E+013 
14550 6.65836E+013 
14600 6.62879E+013 
14650 6.59928E+013 
14700 6.56984E+013 
14750 6.54047E+013 
14800 6.51117E+013 
14850 6.48194E+013 
14900 6.45278E+013 
14950 6.42369E+013 
15000 6.39467E+013 
15050 6.36573E+013 
15100 6.33686E+013 
15150 6.30806E+013 
15200 6.27933E+013 
15250 6.25068E+013 
15300 6.2221E+013 
15350 6.1936E+013 
15400 6.16518E+013 
15450 6.13683E+013 
15500 6.10856E+013 
15550 6.08037E+013 
15600 6.05225E+013 
15650 6.02422E+013 
15700 5.99626E+013 
15750 5.96838E+013 
15800 5.94058E+013 
15850 5.91286E+013 
15900 5.88523E+013 
15950 5.85767E+013 
16000 5.83019E+013 
16050 5.8028E+013 
16100 5.77548E+013 
16150 5.74825E+013 
16200 5.72111E+013 
16250 5.69404E+013 
16300 5.66706E+013 
16350 5.64016E+013 
16400 5.61335E+013 
16450 5.58662E+013 
16500 5.55997E+013 
16550 5.53341E+013 
16600 5.50693E+013 
16650 5.48054E+013 
16700 5.45424E+013 
16750 5.42802E+013 
16800 5.40188E+013 
16850 5.37583E+013 
16900 5.34987E+013 
16950 5.324E+013 
17000 5.29821E+013 
17050 5.2725E+013 
17100 5.24689E+013 
17150 5.22136E+013 
17200 5.19592E+013 
17250 5.17057E+013 
17300 5.1453E+013 
17350 5.12012E+013 
17400 5.09503E+013 
17450 5.07003E+013 
17500 5.04511E+013 
17550 5.02028E+013 
17600 4.99554E+013 
17650 4.97089E+013 
17700 4.94633E+013 
17750 4.92186E+013 
17800 4.89747E+013 
17850 4.87318E+013 
17900 4.84897E+013 
17950 4.82485E+013 
18000 4.80082E+013 
18050 4.77688E+013 
18100 4.75302E+013 
18150 4.72926E+013 
18200 4.70558E+013 
18250 4.682E+013 
18300 4.6585E+013 
18350 4.63509E+013 
18400 4.61177E+013 
18450 4.58854E+013 
18500 4.5654E+013 
18550 4.54234E+013 
18600 4.51938E+013 
18650 4.4965E+013 
18700 4.47372E+013 
18750 4.45102E+013 
18800 4.42841E+013 
18850 4.40589E+013 
18900 4.38346E+013 
18950 4.36111E+013 
19000 4.33886E+013 
19050 4.31669E+013 
19100 4.29461E+013 
19150 4.27263E+013 
19200 4.25072E+013 
19250 4.22891E+013 
19300 4.20719E+013 
19350 4.18555E+013 
19400 4.164E+013 
19450 4.14254E+013 
19500 4.12116E+013 
19550 4.09988E+013 
19600 4.07868E+013 
19650 4.05757E+013 
19700 4.03654E+013 
19750 4.0156E+013 
19800 3.99476E+013 
19850 3.97399E+013 
19900 3.95332E+013 
19950 3.93273E+013 
20000 3.91222E+013 
20050 3.89181E+013 
20100 3.87148E+013 
20150 3.85123E+013 
20200 3.83108E+013 
20250 3.811E+013 
20300 3.79102E+013 
20350 3.77112E+013 
20400 3.7513E+013 
20450 3.73157E+013 
20500 3.71193E+013 
20550 3.69236E+013 
20600 3.67289E+013 
20650 3.6535E+013 
20700 3.63419E+013 
20750 3.61497E+013 
20800 3.59583E+013 
20850 3.57678E+013 
20900 3.55781E+013 
20950 3.53892E+013 
21000 3.52012E+013 
21050 3.5014E+013 
21100 3.48276E+013 
21150 3.46421E+013 
21200 3.44573E+013 
21250 3.42734E+013 
21300 3.40904E+013 
21350 3.39081E+013 
21400 3.37267E+013 
21450 3.35461E+013 
21500 3.33663E+013 
21550 3.31873E+013 
21600 3.30091E+013 
21650 3.28317E+013 
21700 3.26552E+013 
21750 3.24794E+013 
21800 3.23044E+013 
21850 3.21303E+013 
21900 3.19569E+013 
21950 3.17843E+013 
22000 3.16126E+013 
22050 3.14416E+013 
22100 3.12714E+013 
22150 3.1102E+013 
22200 3.09334E+013 
22250 3.07655E+013 
22300 3.05985E+013 
22350 3.04322E+013 
22400 3.02667E+013 
22450 3.0102E+013 
22500 2.9938E+013 
22550 2.97748E+013 
22600 2.96124E+013 
22650 2.94508E+013 
22700 2.92899E+013 
22750 2.91297E+013 
22800 2.89704E+013 
22850 2.88117E+013 
22900 2.86539E+013 
22950 2.84967E+013 
23000 2.83404E+013 
23050 2.81848E+013 
23100 2.80299E+013 
23150 2.78757E+013 
23200 2.77223E+013 
23250 2.75697E+013 
23300 2.74177E+013 
23350 2.72665E+013 
23400 2.71161E+013 
23450 2.69663E+013 
23500 2.68173E+013 
23550 2.6669E+013 
23600 2.65214E+013 
23650 2.63746E+013 
23700 2.62284E+013 
23750 2.6083E+013 
23800 2.59382E+013 
23850 2.57942E+013 
23900 2.56509E+013 
23950 2.55083E+013 
24000 2.53664E+013 
24050 2.52252E+013 
24100 2.50846E+013 
24150 2.49448E+013 
24200 2.48057E+013 
24250 2.46672E+013 
24300 2.45295E+013 
24350 2.43924E+013 
24400 2.4256E+013 
24450 2.41202E+013 
24500 2.39852E+013 
24550 2.38508E+013 
24600 2.37171E+013 
24650 2.35841E+013 
24700 2.34517E+013 
24750 2.332E+013 
24800 2.31889E+013 
24850 2.30585E+013 
24900 2.29288E+013 
24950 2.27997E+013 
25000 2.26712E+013 
25050 2.25435E+013 
25100 2.24163E+013 
25150 2.22898E+013 
25200 2.21639E+013 
25250 2.20387E+013 
25300 2.19141E+013 
25350 2.17902E+013 
25400 2.16668E+013 
25450 2.15441E+013 
25500 2.1422E+013 
25550 2.13006E+013 
25600 2.11798E+013 
25650 2.10596E+013 
25700 2.09399E+013 
25750 2.0821E+013 
25800 2.07026E+013 
25850 2.05848E+013 
25900 2.04676E+013 
25950 2.03511E+013 
26000 2.02351E+013 
26050 2.01198E+013 
26100 2.0005E+013 
26150 1.98908E+013 
26200 1.97772E+013 
26250 1.96642E+013 
26300 1.95518E+013 
26350 1.944E+013 
26400 1.93288E+013 
26450 1.92181E+013 
26500 1.9108E+013 
26550 1.89985E+013 
26600 1.88895E+013 
26650 1.87812E+013 
26700 1.86734E+013 
26750 1.85661E+013 
26800 1.84594E+013 
26850 1.83533E+013 
26900 1.82477E+013 
26950 1.81427E+013 
27000 1.80383E+013 
27050 1.79344E+013 
27100 1.7831E+013 
27150 1.77282E+013 
27200 1.76259E+013 
27250 1.75242E+013 
27300 1.7423E+013 
27350 1.73223E+013 
27400 1.72222E+013 
27450 1.71226E+013 
27500 1.70235E+013 
27550 1.6925E+013 
27600 1.68269E+013 
27650 1.67294E+013 
27700 1.66325E+013 
27750 1.6536E+013 
27800 1.644E+013 
27850 1.63446E+013 
27900 1.62497E+013 
27950 1.61553E+013 
28000 1.60614E+013 
28050 1.5968E+013 
28100 1.5875E+013 
28150 1.57826E+013 
28200 1.56907E+013 
28250 1.55993E+013 
28300 1.55084E+013 
28350 1.54179E+013 
28400 1.5328E+013 
28450 1.52385E+013 
28500 1.51495E+013 
28550 1.5061E+013 
28600 1.4973E+013 
28650 1.48855E+013 
28700 1.47984E+013 
28750 1.47118E+013 
28800 1.46257E+013 
28850 1.454E+013 
28900 1.44548E+013 
28950 1.43701E+013 
29000 1.42858E+013 
29050 1.4202E+013 
29100 1.41186E+013 
29150 1.40357E+013 
29200 1.39532E+013 
29250 1.38712E+013 
29300 1.37897E+013 
29350 1.37086E+013 
29400 1.36279E+013 
29450 1.35477E+013 
29500 1.34679E+013 
29550 1.33885E+013 
29600 1.33096E+013 
29650 1.32312E+013 
29700 1.31531E+013 
29750 1.30755E+013 
29800 1.29983E+013 
29850 1.29215E+013 
29900 1.28452E+013 
29950 1.27693E+013 
30000 1.26938E+013 
30050 1.26187E+013 
30100 1.2544E+013 
30150 1.24698E+013 
30200 1.23959E+013 
30250 1.23225E+013 
30300 1.22495E+013 
30350 1.21768E+013 
30400 1.21046E+013 
30450 1.20328E+013 
30500 1.19614E+013 
30550 1.18904E+013 
30600 1.18197E+013 
30650 1.17495E+013 
30700 1.16797E+013 
30750 1.16102E+013 
30800 1.15411E+013 
30850 1.14725E+013 
30900 1.14042E+013 
30950 1.13362E+013 
31000 1.12687E+013 
31050 1.12016E+013 
31100 1.11348E+013 
31150 1.10684E+013 
31200 1.10023E+013 
31250 1.09367E+013 
31300 1.08714E+013 
31350 1.08064E+013 
31400 1.07419E+013 
31450 1.06777E+013 
31500 1.06138E+013 
31550 1.05504E+013 
31600 1.04872E+013 
31650 1.04245E+013 
31700 1.03621E+013 
31750 1.03E+013 
31800 1.02383E+013 
31850 1.01769E+013 
31900 1.01159E+013 
31950 1.00552E+013 
32000 9.99491E+012 
32050 9.93493E+012 
32100 9.87529E+012 
32150 9.81598E+012 
32200 9.75701E+012 
32250 9.69838E+012 
32300 9.64007E+012 
32350 9.5821E+012 
32400 9.52446E+012 
32450 9.46715E+012 
32500 9.41016E+012 
32550 9.3535E+012 
32600 9.29716E+012 
32650 9.24115E+012 
32700 9.18545E+012 
32750 9.13007E+012 
32800 9.075E+012 
32850 9.02025E+012 
32900 8.96582E+012 
32950 8.91169E+012 
33000 8.85788E+012 
33050 8.80437E+012 
33100 8.75117E+012 
33150 8.69827E+012 
33200 8.64568E+012 
33250 8.59339E+012 
33300 8.5414E+012 
33350 8.48971E+012 
33400 8.43831E+012 
33450 8.38721E+012 
33500 8.33641E+012 
33550 8.28589E+012 
33600 8.23567E+012 
33650 8.18574E+012 
33700 8.13609E+012 
33750 8.08673E+012 
33800 8.03766E+012 
33850 7.98887E+012 
33900 7.94036E+012 
33950 7.89213E+012 
34000 7.84418E+012 
34050 7.79651E+012 
34100 7.74911E+012 
34150 7.70199E+012 
34200 7.65514E+012 
34250 7.60856E+012 
34300 7.56226E+012 
34350 7.51622E+012 
34400 7.47044E+012 
34450 7.42494E+012 
34500 7.37969E+012 
34550 7.33472E+012 
34600 7.29E+012 
34650 7.24554E+012 
34700 7.20134E+012 
34750 7.1574E+012 
34800 7.11371E+012 
34850 7.07028E+012 
34900 7.0271E+012 
34950 6.98418E+012 
35000 6.9415E+012 
35050 6.89907E+012 
35100 6.8569E+012 
35150 6.81496E+012 
35200 6.77328E+012 
35250 6.73183E+012 
35300 6.69063E+012 
35350 6.64967E+012 
35400 6.60895E+012 
35450 6.56847E+012 
35500 6.52822E+012 
35550 6.48821E+012 
35600 6.44844E+012 
35650 6.4089E+012 
35700 6.36959E+012 
35750 6.33051E+012 
35800 6.29167E+012 
35850 6.25305E+012 
35900 6.21465E+012 
35950 6.17648E+012 
36000 6.13854E+012 
36050 6.10082E+012 
36100 6.06333E+012 
36150 6.02605E+012 
36200 5.98899E+012 
36250 5.95216E+012 
36300 5.91554E+012 
36350 5.87913E+012 
36400 5.84294E+012 
36450 5.80697E+012 
36500 5.7712E+012 
36550 5.73565E+012 
36600 5.70031E+012 
36650 5.66518E+012 
36700 5.63025E+012 
36750 5.59553E+012 
36800 5.56102E+012 
36850 5.52671E+012 
36900 5.49261E+012 
36950 5.45871E+012 
37000 5.425E+012 
37050 5.3915E+012 
37100 5.3582E+012 
37150 5.32509E+012 
37200 5.29219E+012 
37250 5.25947E+012 
37300 5.22695E+012 
37350 5.19463E+012 
37400 5.1625E+012 
37450 5.13056E+012 
37500 5.09881E+012 
37550 5.06724E+012 
37600 5.03587E+012 
37650 5.00468E+012 
37700 4.97368E+012 
37750 4.94286E+012 
37800 4.91223E+012 
37850 4.88178E+012 
37900 4.85151E+012 
37950 4.82143E+012 
38000 4.79152E+012 
38050 4.76179E+012 
38100 4.73224E+012 
38150 4.70286E+012 
38200 4.67367E+012 
38250 4.64464E+012 
38300 4.61579E+012 
38350 4.58712E+012 
38400 4.55861E+012 
38450 4.53028E+012 
38500 4.50211E+012 
38550 4.47412E+012 
38600 4.44629E+012 
38650 4.41863E+012 
38700 4.39113E+012 
38750 4.3638E+012 
38800 4.33664E+012 
38850 4.30964E+012 
38900 4.2828E+012 
38950 4.25612E+012 
39000 4.2296E+012 
39050 4.20324E+012 
39100 4.17704E+012 
39150 4.151E+012 
39200 4.12511E+012 
39250 4.09939E+012 
39300 4.07381E+012 
39350 4.04839E+012 
39400 4.02313E+012 
39450 3.99801E+012 
39500 3.97305E+012 
39550 3.94824E+012 
39600 3.92357E+012 
39650 3.89906E+012 
39700 3.8747E+012 
39750 3.85048E+012 
39800 3.82641E+012 
39850 3.80248E+012 
39900 3.7787E+012 
39950 3.75506E+012 
40000 3.73157E+012 
40050 3.70822E+012 
40100 3.68501E+012 
40150 3.66194E+012 
40200 3.63901E+012 
40250 3.61622E+012 
40300 3.59356E+012 
40350 3.57105E+012 
40400 3.54867E+012 
40450 3.52643E+012 
40500 3.50432E+012 
40550 3.48235E+012 
40600 3.46051E+012 
40650 3.4388E+012 
40700 3.41722E+012 
40750 3.39578E+012 
40800 3.37447E+012 
40850 3.35328E+012 
40900 3.33223E+012 
40950 3.3113E+012 
41000 3.2905E+012 
41050 3.26983E+012 
41100 3.24928E+012 
41150 3.22886E+012 
41200 3.20856E+012 
41250 3.18839E+012 
41300 3.16834E+012 
41350 3.14841E+012 
41400 3.12861E+012 
41450 3.10892E+012 
41500 3.08935E+012 
41550 3.06991E+012 
41600 3.05058E+012 
41650 3.03137E+012 
41700 3.01228E+012 
41750 2.99331E+012 
41800 2.97445E+012 
41850 2.95571E+012 
41900 2.93708E+012 
41950 2.91856E+012 
42000 2.90016E+012 
42050 2.88188E+012 
42100 2.8637E+012 
42150 2.84563E+012 
42200 2.82768E+012 
42250 2.80984E+012 
42300 2.7921E+012 
42350 2.77448E+012 
42400 2.75696E+012 
42450 2.73955E+012 
42500 2.72225E+012 
42550 2.70505E+012 
42600 2.68796E+012 
42650 2.67097E+012 
42700 2.65409E+012 
42750 2.63731E+012 
42800 2.62064E+012 
42850 2.60406E+012 
42900 2.58759E+012 
42950 2.57122E+012 
43000 2.55496E+012 
43050 2.53879E+012 
43100 2.52272E+012 
43150 2.50675E+012 
43200 2.49088E+012 
43250 2.4751E+012 
43300 2.45943E+012 
43350 2.44385E+012 
43400 2.42837E+012 
43450 2.41298E+012 
43500 2.39768E+012 
43550 2.38249E+012 
43600 2.36738E+012 
43650 2.35237E+012 
43700 2.33745E+012 
43750 2.32262E+012 
43800 2.30789E+012 
43850 2.29325E+012 
43900 2.27869E+012 
43950 2.26423E+012 
44000 2.24986E+012 
44050 2.23557E+012 
44100 2.22137E+012 
44150 2.20727E+012 
44200 2.19324E+012 
44250 2.17931E+012 
44300 2.16546E+012 
44350 2.1517E+012 
44400 2.13802E+012 
44450 2.12443E+012 
44500 2.11092E+012 
44550 2.0975E+012 
44600 2.08416E+012 
44650 2.0709E+012 
44700 2.05772E+012 
44750 2.04463E+012 
44800 2.03161E+012 
44850 2.01868E+012 
44900 2.00583E+012 
44950 1.99306E+012 
45000 1.98037E+012 
45050 1.96775E+012 
45100 1.95522E+012 
45150 1.94276E+012 
45200 1.93038E+012 
45250 1.91808E+012 
45300 1.90585E+012 
45350 1.8937E+012 
45400 1.88163E+012 
45450 1.86963E+012 
45500 1.8577E+012 
45550 1.84585E+012 
45600 1.83408E+012 
45650 1.82237E+012 
45700 1.81074E+012 
45750 1.79918E+012 
45800 1.7877E+012 
45850 1.77628E+012 
45900 1.76494E+012 
45950 1.75367E+012 
46000 1.74247E+012 
46050 1.73134E+012 
46100 1.72027E+012 
46150 1.70928E+012 
46200 1.69836E+012 
46250 1.6875E+012 
46300 1.67671E+012 
46350 1.66599E+012 
46400 1.65534E+012 
46450 1.64475E+012 
46500 1.63423E+012 
46550 1.62377E+012 
46600 1.61338E+012 
46650 1.60306E+012 
46700 1.5928E+012 
46750 1.5826E+012 
46800 1.57247E+012 
46850 1.5624E+012 
46900 1.55239E+012 
46950 1.54245E+012 
47000 1.53257E+012 
47050 1.52275E+012 
47100 1.51299E+012 
47150 1.5033E+012 
47200 1.49366E+012 
47250 1.48409E+012 
47300 1.47457E+012 
47350 1.46512E+012 
47400 1.45572E+012 
47450 1.44639E+012 
47500 1.43711E+012 
47550 1.42789E+012 
47600 1.41873E+012 
47650 1.40962E+012 
47700 1.40057E+012 
47750 1.39158E+012 
47800 1.38265E+012 
47850 1.37377E+012 
47900 1.36495E+012 
47950 1.35618E+012 
48000 1.34747E+012 
48050 1.33882E+012 
48100 1.33021E+012 
48150 1.32167E+012 
48200 1.31317E+012 
48250 1.30473E+012 
48300 1.29634E+012 
48350 1.28801E+012 
48400 1.27973E+012 
48450 1.2715E+012 
48500 1.26332E+012 
48550 1.25519E+012 
48600 1.24712E+012 
48650 1.23909E+012 
48700 1.23112E+012 
48750 1.2232E+012 
48800 1.21532E+012 
48850 1.2075E+012 
48900 1.19973E+012 
48950 1.192E+012 
49000 1.18432E+012 
49050 1.1767E+012 
49100 1.16912E+012 
49150 1.16158E+012 
49200 1.1541E+012 
49250 1.14666E+012 
49300 1.13927E+012 
49350 1.13193E+012 
49400 1.12463E+012 
49450 1.11738E+012 
49500 1.11018E+012 
49550 1.10302E+012 
49600 1.0959E+012 
49650 1.08883E+012 
49700 1.08181E+012 
49750 1.07483E+012 
49800 1.06789E+012 
49850 1.061E+012 
49900 1.05415E+012 
49950 1.04735E+012 
50000 1.04059E+012 
50050 1.03387E+012 
50100 1.02719E+012 
50150 1.02056E+012 
50200 1.01397E+012 
50250 1.00742E+012 
50300 1.00091E+012 
50350 9.94441E+011 
50400 9.88015E+011 
50450 9.81629E+011 
50500 9.75284E+011 
50550 9.6898E+011 
50600 9.62715E+011 
50650 9.5649E+011 
50700 9.50305E+011 
50750 9.44159E+011 
50800 9.38052E+011 
50850 9.31984E+011 
50900 9.25954E+011 
50950 9.19963E+011 
51000 9.1401E+011 
51050 9.08094E+011 
51100 9.02216E+011 
51150 8.96376E+011 
51200 8.90573E+011 
51250 8.84806E+011 
51300 8.79077E+011 
51350 8.73384E+011 
51400 8.67727E+011 
51450 8.62106E+011 
51500 8.5652E+011 
51550 8.50971E+011 
51600 8.45456E+011 
51650 8.39977E+011 
51700 8.34533E+011 
51750 8.29123E+011 
51800 8.23748E+011 
51850 8.18407E+011 
51900 8.131E+011 
51950 8.07827E+011 
52000 8.02588E+011 
52050 7.97382E+011 
52100 7.92209E+011 
52150 7.8707E+011 
52200 7.81963E+011 
52250 7.76888E+011 
52300 7.71846E+011 
52350 7.66836E+011 
52400 7.61859E+011 
52450 7.56912E+011 
52500 7.51998E+011 
52550 7.47115E+011 
52600 7.42263E+011 
52650 7.37442E+011 
52700 7.32652E+011 
52750 7.27892E+011 
52800 7.23163E+011 
52850 7.18464E+011 
52900 7.13796E+011 
52950 7.09157E+011 
53000 7.04547E+011 
53050 6.99967E+011 
53100 6.95417E+011 
53150 6.90896E+011 
53200 6.86403E+011 
53250 6.81939E+011 
53300 6.77504E+011 
53350 6.73097E+011 
53400 6.68719E+011 
53450 6.64368E+011 
53500 6.60045E+011 
53550 6.55751E+011 
53600 6.51483E+011 
53650 6.47243E+011 
53700 6.4303E+011 
53750 6.38844E+011 
53800 6.34685E+011 
53850 6.30552E+011 
53900 6.26446E+011 
53950 6.22366E+011 
54000 6.18313E+011 
54050 6.14285E+011 
54100 6.10284E+011 
54150 6.06308E+011 
54200 6.02357E+011 
54250 5.98432E+011 
54300 5.94532E+011 
54350 5.90657E+011 
54400 5.86807E+011 
54450 5.82982E+011 
54500 5.79181E+011 
54550 5.75405E+011 
54600 5.71652E+011 
54650 5.67924E+011 
54700 5.6422E+011 
54750 5.6054E+011 
54800 5.56883E+011 
54850 5.5325E+011 
54900 5.49641E+011 
54950 5.46054E+011 
55000 5.4249E+011 
55050 5.3895E+011 
55100 5.35432E+011 
55150 5.31937E+011 
55200 5.28464E+011 
55250 5.25014E+011 
55300 5.21586E+011 
55350 5.18179E+011 
55400 5.14795E+011 
55450 5.11433E+011 
55500 5.08092E+011 
55550 5.04773E+011 
55600 5.01475E+011 
55650 4.98199E+011 
55700 4.94943E+011 
55750 4.91709E+011 
55800 4.88495E+011 
55850 4.85302E+011 
55900 4.82129E+011 
55950 4.78977E+011 
56000 4.75846E+011 
56050 4.72734E+011 
56100 4.69643E+011 
56150 4.66571E+011 
56200 4.6352E+011 
56250 4.60488E+011 
56300 4.57475E+011 
56350 4.54482E+011 
56400 4.51509E+011 
56450 4.48554E+011 
56500 4.45619E+011 
56550 4.42702E+011 
56600 4.39805E+011 
56650 4.36926E+011 
56700 4.34065E+011 
56750 4.31224E+011 
56800 4.284E+011 
56850 4.25595E+011 
56900 4.22808E+011 
56950 4.20038E+011 
57000 4.17287E+011 
57050 4.14554E+011 
57100 4.11838E+011 
57150 4.0914E+011 
57200 4.06459E+011 
57250 4.03795E+011 
57300 4.01149E+011 
57350 3.9852E+011 
57400 3.95908E+011 
57450 3.93313E+011 
57500 3.90734E+011 
57550 3.88172E+011 
57600 3.85627E+011 
57650 3.83098E+011 
57700 3.80586E+011 
57750 3.7809E+011 
57800 3.7561E+011 
57850 3.73146E+011 
57900 3.70698E+011 
57950 3.68266E+011 
58000 3.6585E+011 
58050 3.63449E+011 
58100 3.61064E+011 
58150 3.58694E+011 
58200 3.5634E+011 
58250 3.54001E+011 
58300 3.51677E+011 
58350 3.49368E+011 
58400 3.47074E+011 
58450 3.44795E+011 
58500 3.42531E+011 
58550 3.40282E+011 
58600 3.38047E+011 
58650 3.35826E+011 
58700 3.3362E+011 
58750 3.31428E+011 
58800 3.29251E+011 
58850 3.27088E+011 
58900 3.24938E+011 
58950 3.22803E+011 
59000 3.20681E+011 
59050 3.18574E+011 
59100 3.1648E+011 
59150 3.14399E+011 
59200 3.12332E+011 
59250 3.10278E+011 
59300 3.08238E+011 
59350 3.06211E+011 
59400 3.04198E+011 
59450 3.02197E+011 
59500 3.00209E+011 
59550 2.98234E+011 
59600 2.96272E+011 
59650 2.94323E+011 
59700 2.92387E+011 
59750 2.90463E+011 
59800 2.88551E+011 
59850 2.86652E+011 
59900 2.84766E+011 
59950 2.82891E+011 
60000 2.81029E+011 
60050 2.79179E+011 
60100 2.77341E+011 
60150 2.75515E+011 
60200 2.73701E+011 
60250 2.71898E+011 
60300 2.70108E+011 
60350 2.68329E+011 
60400 2.66561E+011 
60450 2.64805E+011 
60500 2.63061E+011 
60550 2.61328E+011 
60600 2.59606E+011 
60650 2.57895E+011 
60700 2.56196E+011 
60750 2.54507E+011 
60800 2.5283E+011 
60850 2.51163E+011 
60900 2.49508E+011 
60950 2.47863E+011 
61000 2.46229E+011 
61050 2.44605E+011 
61100 2.42993E+011 
61150 2.4139E+011 
61200 2.39798E+011 
61250 2.38217E+011 
61300 2.36646E+011 
61350 2.35085E+011 
61400 2.33534E+011 
61450 2.31993E+011 
61500 2.30463E+011 
61550 2.28942E+011 
61600 2.27431E+011 
61650 2.2593E+011 
61700 2.24439E+011 
61750 2.22958E+011 
61800 2.21486E+011 
61850 2.20024E+011 
61900 2.18572E+011 
61950 2.17129E+011 
62000 2.15695E+011 
62050 2.14271E+011 
62100 2.12856E+011 
62150 2.1145E+011 
62200 2.10054E+011 
62250 2.08667E+011 
62300 2.07288E+011 
62350 2.05919E+011 
62400 2.04559E+011 
62450 2.03207E+011 
62500 2.01864E+011 
62550 2.00531E+011 
62600 1.99206E+011 
62650 1.97889E+011 
62700 1.96581E+011 
62750 1.95282E+011 
62800 1.93991E+011 
62850 1.92709E+011 
62900 1.91435E+011 
62950 1.90169E+011 
63000 1.88912E+011 
63050 1.87663E+011 
63100 1.86422E+011 
63150 1.85189E+011 
63200 1.83964E+011 
63250 1.82747E+011 
63300 1.81539E+011 
63350 1.80338E+011 
63400 1.79145E+011 
63450 1.7796E+011 
63500 1.76782E+011 
63550 1.75612E+011 
63600 1.7445E+011 
63650 1.73296E+011 
63700 1.72149E+011 
63750 1.7101E+011 
63800 1.69878E+011 
63850 1.68753E+011 
63900 1.67636E+011 
63950 1.66526E+011 
64000 1.65424E+011 
64050 1.64328E+011 
64100 1.6324E+011 
64150 1.62159E+011 
64200 1.61085E+011 
64250 1.60018E+011 
64300 1.58959E+011 
64350 1.57906E+011 
64400 1.5686E+011 
64450 1.55821E+011 
64500 1.54788E+011 
64550 1.53763E+011 
64600 1.52744E+011 
64650 1.51732E+011 
64700 1.50726E+011 
64750 1.49727E+011 
64800 1.48735E+011 
64850 1.47749E+011 
64900 1.4677E+011 
64950 1.45797E+011 
65000 1.4483E+011 
65050 1.4387E+011 
65100 1.42916E+011 
65150 1.41969E+011 
65200 1.41027E+011 
65250 1.40092E+011 
65300 1.39163E+011 
65350 1.3824E+011 
65400 1.37323E+011 
65450 1.36412E+011 
65500 1.35507E+011 
65550 1.34608E+011 
65600 1.33715E+011 
65650 1.32828E+011 
65700 1.31946E+011 
65750 1.31071E+011 
65800 1.30201E+011 
65850 1.29337E+011 
65900 1.28479E+011 
65950 1.27626E+011 
66000 1.26779E+011 
66050 1.25937E+011 
66100 1.25101E+011 
66150 1.24271E+011 
66200 1.23446E+011 
66250 1.22626E+011 
66300 1.21812E+011 
66350 1.21003E+011 
66400 1.20199E+011 
66450 1.19401E+011 
66500 1.18608E+011 
66550 1.1782E+011 
66600 1.17037E+011 
66650 1.1626E+011 
66700 1.15487E+011 
66750 1.1472E+011 
66800 1.13958E+011 
66850 1.13201E+011 
66900 1.12449E+011 
66950 1.11701E+011 
67000 1.10959E+011 
67050 1.10222E+011 
67100 1.09489E+011 
67150 1.08761E+011 
67200 1.08038E+011 
67250 1.0732E+011 
67300 1.06606E+011 
67350 1.05898E+011 
67400 1.05193E+011 
67450 1.04494E+011 
67500 1.03799E+011 
67550 1.03109E+011 
67600 1.02423E+011 
67650 1.01742E+011 
67700 1.01065E+011 
67750 1.00393E+011 
67800 9.97252E+010 
67850 9.90618E+010 
67900 9.84028E+010 
67950 9.77481E+010 
68000 9.70977E+010 
68050 9.64516E+010 
68100 9.58098E+010 
68150 9.51722E+010 
68200 9.45388E+010 
68250 9.39096E+010 
68300 9.32846E+010 
68350 9.26637E+010 
68400 9.20468E+010 
68450 9.14341E+010 
68500 9.08254E+010 
68550 9.02207E+010 
68600 8.962E+010 
68650 8.90232E+010 
68700 8.84305E+010 
68750 8.78416E+010 
68800 8.72566E+010 
68850 8.66755E+010 
68900 8.60982E+010 
68950 8.55247E+010 
69000 8.4955E+010 
69050 8.43891E+010 
69100 8.38269E+010 
69150 8.32684E+010 
69200 8.27137E+010 
69250 8.21625E+010 
69300 8.16151E+010 
69350 8.10712E+010 
69400 8.0531E+010 
69450 7.99943E+010 
69500 7.94611E+010 
69550 7.89315E+010 
69600 7.84054E+010 
69650 7.78828E+010 
69700 7.73636E+010 
69750 7.68479E+010 
69800 7.63355E+010 
69850 7.58266E+010 
69900 7.5321E+010 
69950 7.48188E+010 
70000 7.43198E+010 
70050 7.38242E+010 
70100 7.33319E+010 
70150 7.28428E+010 
70200 7.2357E+010 
70250 7.18744E+010 
70300 7.13949E+010 
70350 7.09187E+010 
70400 7.04456E+010 
70450 6.99756E+010 
70500 6.95087E+010 
70550 6.9045E+010 
70600 6.85843E+010 
70650 6.81266E+010 
70700 6.7672E+010 
70750 6.72204E+010 
70800 6.67717E+010 
70850 6.63261E+010 
70900 6.58834E+010 
70950 6.54436E+010 
71000 6.50068E+010 
71050 6.45728E+010 
71100 6.41417E+010 
71150 6.37135E+010 
71200 6.32881E+010 
71250 6.28655E+010 
71300 6.24458E+010 
71350 6.20288E+010 
71400 6.16145E+010 
71450 6.12031E+010 
71500 6.07943E+010 
71550 6.03883E+010 
71600 5.99849E+010 
71650 5.95842E+010 
71700 5.91862E+010 
71750 5.87908E+010 
71800 5.8398E+010 
71850 5.80079E+010 
71900 5.76203E+010 
71950 5.72353E+010 
72000 5.68529E+010 
72050 5.6473E+010 
72100 5.60956E+010 
72150 5.57207E+010 
72200 5.53483E+010 
72250 5.49784E+010 
72300 5.46109E+010 
72350 5.42458E+010 
72400 5.38832E+010 
72450 5.3523E+010 
72500 5.31652E+010 
72550 5.28098E+010 
72600 5.24567E+010 
72650 5.21059E+010 
72700 5.17575E+010 
72750 5.14114E+010 
72800 5.10676E+010 
72850 5.07261E+010 
72900 5.03868E+010 
72950 5.00499E+010 
73000 4.97151E+010 
73050 4.93826E+010 
73100 4.90522E+010 
73150 4.87241E+010 
73200 4.83981E+010 
73250 4.80744E+010 
73300 4.77527E+010 
73350 4.74332E+010 
73400 4.71158E+010 
73450 4.68006E+010 
73500 4.64874E+010 
73550 4.61763E+010 
73600 4.58673E+010 
73650 4.55603E+010 
73700 4.52553E+010 
73750 4.49524E+010 
73800 4.46515E+010 
73850 4.43527E+010 
73900 4.40557E+010 
73950 4.37608E+010 
74000 4.34678E+010 
74050 4.31768E+010 
74100 4.28877E+010 
74150 4.26006E+010 
74200 4.23153E+010 
74250 4.2032E+010 
74300 4.17505E+010 
74350 4.14709E+010 
74400 4.11931E+010 
74450 4.09172E+010 
74500 4.06432E+010 
74550 4.03709E+010 
74600 4.01005E+010 
74650 3.98319E+010 
74700 3.9565E+010 
74750 3.93E+010 
74800 3.90367E+010 
74850 3.87751E+010 
74900 3.85153E+010 
74950 3.82573E+010 
75000 3.80009E+010 
75050 3.77462E+010 
75100 3.74933E+010 
75150 3.7242E+010 
75200 3.69924E+010 
75250 3.67445E+010 
75300 3.64982E+010 
75350 3.62535E+010 
75400 3.60105E+010 
75450 3.57691E+010 
75500 3.55293E+010 
75550 3.52911E+010 
75600 3.50545E+010 
75650 3.48195E+010 
75700 3.4586E+010 
75750 3.43541E+010 
75800 3.41237E+010 
75850 3.38949E+010 
75900 3.36676E+010 
75950 3.34418E+010 
76000 3.32175E+010 
76050 3.29947E+010 
76100 3.27734E+010 
76150 3.25536E+010 
76200 3.23352E+010 
76250 3.21183E+010 
76300 3.19028E+010 
76350 3.16888E+010 
76400 3.14762E+010 
76450 3.1265E+010 
76500 3.10552E+010 
76550 3.08469E+010 
76600 3.06399E+010 
76650 3.04343E+010 
76700 3.023E+010 
76750 3.00271E+010 
76800 2.98256E+010 
76850 2.96254E+010 
76900 2.94266E+010 
76950 2.92291E+010 
77000 2.90329E+010 
77050 2.8838E+010 
77100 2.86444E+010 
77150 2.84521E+010 
77200 2.82611E+010 
77250 2.80713E+010 
77300 2.78829E+010 
77350 2.76956E+010 
77400 2.75097E+010 
77450 2.73249E+010 
77500 2.71414E+010 
77550 2.69592E+010 
77600 2.67781E+010 
77650 2.65983E+010 
77700 2.64196E+010 
77750 2.62422E+010 
77800 2.60659E+010 
77850 2.58908E+010 
77900 2.57169E+010 
77950 2.55441E+010 
78000 2.53725E+010 
78050 2.52021E+010 
78100 2.50327E+010 
78150 2.48646E+010 
78200 2.46975E+010 
78250 2.45315E+010 
78300 2.43667E+010 
78350 2.4203E+010 
78400 2.40403E+010 
78450 2.38787E+010 
78500 2.37183E+010 
78550 2.35588E+010 
78600 2.34005E+010 
78650 2.32432E+010 
78700 2.3087E+010 
78750 2.29318E+010 
78800 2.27776E+010 
78850 2.26245E+010 
78900 2.24724E+010 
78950 2.23213E+010 
79000 2.21712E+010 
79050 2.20222E+010 
79100 2.18741E+010 
79150 2.1727E+010 
79200 2.15809E+010 
79250 2.14358E+010 
79300 2.12916E+010 
79350 2.11484E+010 
79400 2.10062E+010 
79450 2.08649E+010 
79500 2.07246E+010 
79550 2.05852E+010 
79600 2.04467E+010 
79650 2.03092E+010 
79700 2.01726E+010 
79750 2.00368E+010 
79800 1.99021E+010 
79850 1.97682E+010 
79900 1.96352E+010 
79950 1.9503E+010 
80000 1.93718E+010 
80050 1.92415E+010 
80100 1.9112E+010 
80150 1.89834E+010 
80200 1.88556E+010 
80250 1.87287E+010 
80300 1.86027E+010 
80350 1.84775E+010 
80400 1.83531E+010 
80450 1.82296E+010 
80500 1.81069E+010 
80550 1.7985E+010 
80600 1.78639E+010 
80650 1.77437E+010 
80700 1.76242E+010 
80750 1.75056E+010 
80800 1.73877E+010 
80850 1.72706E+010 
80900 1.71544E+010 
80950 1.70389E+010 
81000 1.69241E+010 
81050 1.68102E+010 
81100 1.6697E+010 
81150 1.65845E+010 
81200 1.64728E+010 
81250 1.63619E+010 
81300 1.62517E+010 
81350 1.61422E+010 
81400 1.60335E+010 
81450 1.59255E+010 
81500 1.58182E+010 
81550 1.57117E+010 
81600 1.56058E+010 
81650 1.55007E+010 
81700 1.53963E+010 
81750 1.52925E+010 
81800 1.51895E+010 
81850 1.50872E+010 
81900 1.49855E+010 
81950 1.48845E+010 
82000 1.47842E+010 
82050 1.46846E+010 
82100 1.45857E+010 
82150 1.44874E+010 
82200 1.43897E+010 
82250 1.42927E+010 
82300 1.41964E+010 
82350 1.41007E+010 
82400 1.40057E+010 
82450 1.39113E+010 
82500 1.38175E+010 
82550 1.37244E+010 
82600 1.36318E+010 
82650 1.35399E+010 
82700 1.34486E+010 
82750 1.3358E+010 
82800 1.32679E+010 
82850 1.31785E+010 
82900 1.30896E+010 
82950 1.30013E+010 
83000 1.29137E+010 
83050 1.28266E+010 
83100 1.27401E+010 
83150 1.26542E+010 
83200 1.25688E+010 
83250 1.24841E+010 
83300 1.23999E+010 
83350 1.23162E+010 
83400 1.22332E+010 
83450 1.21506E+010 
83500 1.20687E+010 
83550 1.19873E+010 
83600 1.19064E+010 
83650 1.18261E+010 
83700 1.17463E+010 
83750 1.16671E+010 
83800 1.15883E+010 
83850 1.15102E+010 
83900 1.14325E+010 
83950 1.13554E+010 
84000 1.12787E+010 
84050 1.12026E+010 
84100 1.1127E+010 
84150 1.10519E+010 
84200 1.09773E+010 
84250 1.09033E+010 
84300 1.08297E+010 
84350 1.07566E+010 
84400 1.0684E+010 
84450 1.06119E+010 
84500 1.05402E+010 
84550 1.04691E+010 
84600 1.03984E+010 
84650 1.03282E+010 
84700 1.02585E+010 
84750 1.01892E+010 
84800 1.01205E+010 
84850 1.00521E+010 
84900 9.98426E+009 
84950 9.91685E+009 
85000 9.84989E+009 
85050 9.78338E+009 
85100 9.71731E+009 
85150 9.65169E+009 
85200 9.58652E+009 
85250 9.52178E+009 
85300 9.45747E+009 
85350 9.3936E+009 
85400 9.33016E+009 
85450 9.26714E+009 
85500 9.20455E+009 
85550 9.14238E+009 
85600 9.08062E+009 
85650 9.01928E+009 
85700 8.95836E+009 
85750 8.89784E+009 
85800 8.83773E+009 
85850 8.77802E+009 
85900 8.71872E+009 
85950 8.65981E+009 
86000 8.6013E+009 
86050 8.54319E+009 
86100 8.48546E+009 
86150 8.42813E+009 
86200 8.37117E+009 
86250 8.31461E+009 
86300 8.25842E+009 
86350 8.20261E+009 
86400 8.14717E+009 
86450 8.09211E+009 
86500 8.03742E+009 
86550 7.9831E+009 
86600 7.92914E+009 
86650 7.87555E+009 
86700 7.82232E+009 
86750 7.76944E+009 
86800 7.71692E+009 
86850 7.66475E+009 
86900 7.61294E+009 
86950 7.56147E+009 
87000 7.51035E+009 
87050 7.45958E+009 
87100 7.40914E+009 
87150 7.35905E+009 
87200 7.30929E+009 
87250 7.25987E+009 
87300 7.21078E+009 
87350 7.16202E+009 
87400 7.11359E+009 
87450 7.06548E+009 
87500 7.0177E+009 
87550 6.97024E+009 
87600 6.9231E+009 
87650 6.87628E+009 
87700 6.82977E+009 
87750 6.78358E+009 
87800 6.73769E+009 
87850 6.69212E+009 
87900 6.64685E+009 
87950 6.60189E+009 
88000 6.55723E+009 
88050 6.51287E+009 
88100 6.46881E+009 
88150 6.42505E+009 
88200 6.38158E+009 
88250 6.33841E+009 
88300 6.29552E+009 
88350 6.25293E+009 
88400 6.21062E+009 
88450 6.16859E+009 
88500 6.12685E+009 
88550 6.08539E+009 
88600 6.04421E+009 
88650 6.00331E+009 
88700 5.96269E+009 
88750 5.92233E+009 
88800 5.88225E+009 
88850 5.84244E+009 
88900 5.8029E+009 
88950 5.76362E+009 
89000 5.72461E+009 
89050 5.68586E+009 
89100 5.64737E+009 
89150 5.60915E+009 
89200 5.57118E+009 
89250 5.53346E+009 
89300 5.496E+009 
89350 5.4588E+009 
89400 5.42184E+009 
89450 5.38513E+009 
89500 5.34867E+009 
89550 5.31246E+009 
89600 5.27649E+009 
89650 5.24076E+009 
89700 5.20527E+009 
89750 5.17003E+009 
89800 5.13502E+009 
89850 5.10024E+009 
89900 5.0657E+009 
89950 5.0314E+009 
90000 4.99732E+009 
90050 4.96348E+009 
90100 4.92986E+009 
90150 4.89647E+009 
90200 4.86331E+009 
90250 4.83037E+009 
90300 4.79765E+009 
90350 4.76515E+009 
90400 4.73287E+009 
90450 4.70081E+009 
90500 4.66897E+009 
90550 4.63734E+009 
90600 4.60592E+009 
90650 4.57472E+009 
90700 4.54373E+009 
90750 4.51294E+009 
90800 4.48236E+009 
90850 4.452E+009 
90900 4.42183E+009 
90950 4.39187E+009 
91000 4.36211E+009 
91050 4.33255E+009 
91100 4.30319E+009 
91150 4.27403E+009 
91200 4.24506E+009 
91250 4.2163E+009 
91300 4.18772E+009 
91350 4.15934E+009 
91400 4.13115E+009 
91450 4.10315E+009 
91500 4.07534E+009 
91550 4.04772E+009 
91600 4.02028E+009 
91650 3.99303E+009 
91700 3.96596E+009 
91750 3.93908E+009 
91800 3.91238E+009 
91850 3.88585E+009 
91900 3.85951E+009 
91950 3.83334E+009 
92000 3.80736E+009 
92050 3.78154E+009 
92100 3.7559E+009 
92150 3.73044E+009 
92200 3.70514E+009 
92250 3.68002E+009 
92300 3.65507E+009 
92350 3.63028E+009 
92400 3.60567E+009 
92450 3.58121E+009 
92500 3.55693E+009 
92550 3.53281E+009 
92600 3.50885E+009 
92650 3.48505E+009 
92700 3.46142E+009 
92750 3.43794E+009 
92800 3.41462E+009 
92850 3.39146E+009 
92900 3.36846E+009 
92950 3.34561E+009 
93000 3.32292E+009 
93050 3.30038E+009 
93100 3.27799E+009 
93150 3.25575E+009 
93200 3.23367E+009 
93250 3.21173E+009 
93300 3.18994E+009 
93350 3.1683E+009 
93400 3.1468E+009 
93450 3.12545E+009 
93500 3.10425E+009 
93550 3.08318E+009 
93600 3.06226E+009 
93650 3.04149E+009 
93700 3.02085E+009 
93750 3.00035E+009 
93800 2.97999E+009 
93850 2.95977E+009 
93900 2.93968E+009 
93950 2.91973E+009 
94000 2.89992E+009 
94050 2.88024E+009 
94100 2.86069E+009 
94150 2.84127E+009 
94200 2.82199E+009 
94250 2.80283E+009 
94300 2.78381E+009 
94350 2.76491E+009 
94400 2.74615E+009 
94450 2.7275E+009 
94500 2.70899E+009 
94550 2.6906E+009 
94600 2.67234E+009 
94650 2.65419E+009 
94700 2.63618E+009 
94750 2.61828E+009 
94800 2.6005E+009 
94850 2.58285E+009 
94900 2.56531E+009 
94950 2.54789E+009 
95000 2.53059E+009 
95050 2.51341E+009 
95100 2.49634E+009 
95150 2.47939E+009 
95200 2.46256E+009 
95250 2.44583E+009 
95300 2.42922E+009 
95350 2.41273E+009 
95400 2.39634E+009 
95450 2.38007E+009 
95500 2.36391E+009 
95550 2.34785E+009 
95600 2.3319E+009 
95650 2.31607E+009 
95700 2.30034E+009 
95750 2.28471E+009 
95800 2.26919E+009 
95850 2.25378E+009 
95900 2.23847E+009 
95950 2.22326E+009 
96000 2.20816E+009 
96050 2.19316E+009 
96100 2.17826E+009 
96150 2.16346E+009 
96200 2.14877E+009 
96250 2.13417E+009 
96300 2.11967E+009 
96350 2.10527E+009 
96400 2.09096E+009 
96450 2.07676E+009 
96500 2.06264E+009 
96550 2.04863E+009 
96600 2.03471E+009 
96650 2.02088E+009 
96700 2.00715E+009 
96750 1.99351E+009 
96800 1.97997E+009 
96850 1.96651E+009 
96900 1.95315E+009 
96950 1.93987E+009 
97000 1.92669E+009 
97050 1.91359E+009 
97100 1.90059E+009 
97150 1.88767E+009 
97200 1.87484E+009 
97250 1.8621E+009 
97300 1.84944E+009 
97350 1.83687E+009 
97400 1.82438E+009 
97450 1.81198E+009 
97500 1.79967E+009 
97550 1.78743E+009 
97600 1.77528E+009 
97650 1.76321E+009 
97700 1.75122E+009 
97750 1.73932E+009 
97800 1.7275E+009 
97850 1.71575E+009 
97900 1.70408E+009 
97950 1.6925E+009 
98000 1.68099E+009 
98050 1.66956E+009 
98100 1.65821E+009 
98150 1.64693E+009 
98200 1.63574E+009 
98250 1.62461E+009 
98300 1.61357E+009 
98350 1.60259E+009 
98400 1.59169E+009 
98450 1.58087E+009 
98500 1.57012E+009 
98550 1.55944E+009 
98600 1.54883E+009 
98650 1.5383E+009 
98700 1.52784E+009 
98750 1.51745E+009 
98800 1.50713E+009 
98850 1.49688E+009 
98900 1.48669E+009 
98950 1.47658E+009 
99000 1.46654E+009 
99050 1.45656E+009 
99100 1.44665E+009 
99150 1.43681E+009 
99200 1.42704E+009 
99250 1.41733E+009 
99300 1.40769E+009 
99350 1.39811E+009 
99400 1.3886E+009 
99450 1.37915E+009 
99500 1.36977E+009 
99550 1.36045E+009 
99600 1.35119E+009 
99650 1.342E+009 
99700 1.33287E+009 
99750 1.3238E+009 
99800 1.31479E+009 
99850 1.30585E+009 
99900 1.29696E+009 
99950 1.28814E+009 
100000 1.27937E+009 
