#F U:\Beamline I20\I20-2_EDE\Wigglers\xop\83mm-small-wiggler\EDE wiggler\1p2T-300mA-0p12x1p5mrad.dat
#C I20EDE 1.2T 300mA 0.12x1.5mrad
#S 1 File written by xplot on Tue Dec 07 18:18:52 2010
#N 2
#L    Energy [eV]  Flux [ph/s/0.1%bw]
50 1.05433E+013 
100 1.67222E+013 
150 2.18799E+013 
200 2.64556E+013 
250 3.06315E+013 
300 3.45057E+013 
350 3.81386E+013 
400 4.15708E+013 
450 4.48315E+013 
500 4.79423E+013 
550 5.09199E+013 
600 5.37778E+013 
650 5.65266E+013 
700 5.91754E+013 
750 6.17317E+013 
800 6.42019E+013 
850 6.65914E+013 
900 6.89052E+013 
950 7.11475E+013 
1000 7.33219E+013 
1050 7.5432E+013 
1100 7.74806E+013 
1150 7.94705E+013 
1200 8.14042E+013 
1250 8.3284E+013 
1300 8.51118E+013 
1350 8.68897E+013 
1400 8.86195E+013 
1450 9.03026E+013 
1500 9.19408E+013 
1550 9.35353E+013 
1600 9.50877E+013 
1650 9.6599E+013 
1700 9.80706E+013 
1750 9.95035E+013 
1800 1.00899E+014 
1850 1.02258E+014 
1900 1.03581E+014 
1950 1.04869E+014 
2000 1.06123E+014 
2050 1.07345E+014 
2100 1.08534E+014 
2150 1.09692E+014 
2200 1.10819E+014 
2250 1.11916E+014 
2300 1.12984E+014 
2350 1.14022E+014 
2400 1.15033E+014 
2450 1.16017E+014 
2500 1.16973E+014 
2550 1.17903E+014 
2600 1.18807E+014 
2650 1.19686E+014 
2700 1.2054E+014 
2750 1.2137E+014 
2800 1.22177E+014 
2850 1.2296E+014 
2900 1.2372E+014 
2950 1.24457E+014 
3000 1.25173E+014 
3050 1.25867E+014 
3100 1.2654E+014 
3150 1.27191E+014 
3200 1.27823E+014 
3250 1.28435E+014 
3300 1.29027E+014 
3350 1.296E+014 
3400 1.30153E+014 
3450 1.30689E+014 
3500 1.31205E+014 
3550 1.31705E+014 
3600 1.32186E+014 
3650 1.3265E+014 
3700 1.33097E+014 
3750 1.33528E+014 
3800 1.33942E+014 
3850 1.3434E+014 
3900 1.34722E+014 
3950 1.35088E+014 
4000 1.3544E+014 
4050 1.35776E+014 
4100 1.36097E+014 
4150 1.36404E+014 
4200 1.36697E+014 
4250 1.36976E+014 
4300 1.37241E+014 
4350 1.37492E+014 
4400 1.3773E+014 
4450 1.37955E+014 
4500 1.38168E+014 
4550 1.38367E+014 
4600 1.38555E+014 
4650 1.3873E+014 
4700 1.38893E+014 
4750 1.39044E+014 
4800 1.39184E+014 
4850 1.39312E+014 
4900 1.39429E+014 
4950 1.39536E+014 
5000 1.39631E+014 
5050 1.39716E+014 
5100 1.3979E+014 
5150 1.39854E+014 
5200 1.39908E+014 
5250 1.39952E+014 
5300 1.39987E+014 
5350 1.40011E+014 
5400 1.40027E+014 
5450 1.40033E+014 
5500 1.4003E+014 
5550 1.40018E+014 
5600 1.39998E+014 
5650 1.39969E+014 
5700 1.39931E+014 
5750 1.39885E+014 
5800 1.39831E+014 
5850 1.39769E+014 
5900 1.39699E+014 
5950 1.39621E+014 
6000 1.39536E+014 
6050 1.39443E+014 
6100 1.39343E+014 
6150 1.39236E+014 
6200 1.39121E+014 
6250 1.39E+014 
6300 1.38872E+014 
6350 1.38737E+014 
6400 1.38596E+014 
6450 1.38448E+014 
6500 1.38294E+014 
6550 1.38133E+014 
6600 1.37967E+014 
6650 1.37795E+014 
6700 1.37616E+014 
6750 1.37432E+014 
6800 1.37243E+014 
6850 1.37047E+014 
6900 1.36846E+014 
6950 1.36641E+014 
7000 1.36429E+014 
7050 1.36213E+014 
7100 1.35991E+014 
7150 1.35765E+014 
7200 1.35534E+014 
7250 1.35298E+014 
7300 1.35057E+014 
7350 1.34812E+014 
7400 1.34562E+014 
7450 1.34308E+014 
7500 1.3405E+014 
7550 1.33787E+014 
7600 1.33521E+014 
7650 1.3325E+014 
7700 1.32975E+014 
7750 1.32697E+014 
7800 1.32414E+014 
7850 1.32129E+014 
7900 1.31839E+014 
7950 1.31546E+014 
8000 1.31249E+014 
8050 1.30949E+014 
8100 1.30646E+014 
8150 1.30339E+014 
8200 1.30029E+014 
8250 1.29717E+014 
8300 1.29401E+014 
8350 1.29082E+014 
8400 1.2876E+014 
8450 1.28436E+014 
8500 1.28108E+014 
8550 1.27778E+014 
8600 1.27445E+014 
8650 1.2711E+014 
8700 1.26772E+014 
8750 1.26432E+014 
8800 1.2609E+014 
8850 1.25745E+014 
8900 1.25398E+014 
8950 1.25048E+014 
9000 1.24697E+014 
9050 1.24343E+014 
9100 1.23988E+014 
9150 1.2363E+014 
9200 1.23271E+014 
9250 1.22909E+014 
9300 1.22546E+014 
9350 1.22181E+014 
9400 1.21814E+014 
9450 1.21446E+014 
9500 1.21076E+014 
9550 1.20704E+014 
9600 1.20331E+014 
9650 1.19957E+014 
9700 1.19581E+014 
9750 1.19204E+014 
9800 1.18825E+014 
9850 1.18445E+014 
9900 1.18064E+014 
9950 1.17681E+014 
10000 1.17298E+014 
10050 1.16913E+014 
10100 1.16528E+014 
10150 1.16141E+014 
10200 1.15753E+014 
10250 1.15364E+014 
10300 1.14975E+014 
10350 1.14584E+014 
10400 1.14193E+014 
10450 1.13801E+014 
10500 1.13408E+014 
10550 1.13015E+014 
10600 1.1262E+014 
10650 1.12225E+014 
10700 1.1183E+014 
10750 1.11434E+014 
10800 1.11037E+014 
10850 1.1064E+014 
10900 1.10242E+014 
10950 1.09844E+014 
11000 1.09446E+014 
11050 1.09047E+014 
11100 1.08648E+014 
11150 1.08248E+014 
11200 1.07848E+014 
11250 1.07448E+014 
11300 1.07048E+014 
11350 1.06647E+014 
11400 1.06246E+014 
11450 1.05845E+014 
11500 1.05444E+014 
11550 1.05043E+014 
11600 1.04642E+014 
11650 1.04241E+014 
11700 1.03839E+014 
11750 1.03438E+014 
11800 1.03037E+014 
11850 1.02635E+014 
11900 1.02234E+014 
11950 1.01833E+014 
12000 1.01432E+014 
12050 1.01032E+014 
12100 1.00631E+014 
12150 1.00231E+014 
12200 9.98303E+013 
12250 9.94303E+013 
12300 9.90306E+013 
12350 9.86311E+013 
12400 9.82319E+013 
12450 9.7833E+013 
12500 9.74345E+013 
12550 9.70363E+013 
12600 9.66385E+013 
12650 9.6241E+013 
12700 9.5844E+013 
12750 9.54474E+013 
12800 9.50512E+013 
12850 9.46555E+013 
12900 9.42603E+013 
12950 9.38655E+013 
13000 9.34713E+013 
13050 9.30776E+013 
13100 9.26844E+013 
13150 9.22918E+013 
13200 9.18998E+013 
13250 9.15083E+013 
13300 9.11174E+013 
13350 9.07272E+013 
13400 9.03376E+013 
13450 8.99486E+013 
13500 8.95603E+013 
13550 8.91726E+013 
13600 8.87856E+013 
13650 8.83994E+013 
13700 8.80138E+013 
13750 8.76289E+013 
13800 8.72448E+013 
13850 8.68614E+013 
13900 8.64788E+013 
13950 8.60969E+013 
14000 8.57159E+013 
14050 8.53356E+013 
14100 8.49561E+013 
14150 8.45774E+013 
14200 8.41995E+013 
14250 8.38225E+013 
14300 8.34463E+013 
14350 8.3071E+013 
14400 8.26965E+013 
14450 8.23229E+013 
14500 8.19501E+013 
14550 8.15783E+013 
14600 8.12073E+013 
14650 8.08372E+013 
14700 8.04681E+013 
14750 8.00999E+013 
14800 7.97326E+013 
14850 7.93662E+013 
14900 7.90008E+013 
14950 7.86363E+013 
15000 7.82728E+013 
15050 7.79102E+013 
15100 7.75486E+013 
15150 7.7188E+013 
15200 7.68284E+013 
15250 7.64698E+013 
15300 7.61121E+013 
15350 7.57555E+013 
15400 7.53999E+013 
15450 7.50453E+013 
15500 7.46917E+013 
15550 7.43391E+013 
15600 7.39875E+013 
15650 7.3637E+013 
15700 7.32876E+013 
15750 7.29391E+013 
15800 7.25918E+013 
15850 7.22455E+013 
15900 7.19002E+013 
15950 7.1556E+013 
16000 7.12129E+013 
16050 7.08708E+013 
16100 7.05298E+013 
16150 7.01899E+013 
16200 6.98511E+013 
16250 6.95133E+013 
16300 6.91767E+013 
16350 6.88411E+013 
16400 6.85067E+013 
16450 6.81733E+013 
16500 6.7841E+013 
16550 6.75099E+013 
16600 6.71798E+013 
16650 6.68509E+013 
16700 6.6523E+013 
16750 6.61963E+013 
16800 6.58707E+013 
16850 6.55463E+013 
16900 6.52229E+013 
16950 6.49007E+013 
17000 6.45795E+013 
17050 6.42596E+013 
17100 6.39407E+013 
17150 6.3623E+013 
17200 6.33064E+013 
17250 6.29909E+013 
17300 6.26766E+013 
17350 6.23634E+013 
17400 6.20513E+013 
17450 6.17404E+013 
17500 6.14306E+013 
17550 6.11219E+013 
17600 6.08144E+013 
17650 6.05081E+013 
17700 6.02028E+013 
17750 5.98988E+013 
17800 5.95958E+013 
17850 5.9294E+013 
17900 5.89934E+013 
17950 5.86938E+013 
18000 5.83955E+013 
18050 5.80982E+013 
18100 5.78022E+013 
18150 5.75072E+013 
18200 5.72134E+013 
18250 5.69208E+013 
18300 5.66292E+013 
18350 5.63389E+013 
18400 5.60497E+013 
18450 5.57616E+013 
18500 5.54746E+013 
18550 5.51888E+013 
18600 5.49041E+013 
18650 5.46206E+013 
18700 5.43382E+013 
18750 5.4057E+013 
18800 5.37769E+013 
18850 5.34979E+013 
18900 5.32201E+013 
18950 5.29433E+013 
19000 5.26678E+013 
19050 5.23933E+013 
19100 5.212E+013 
19150 5.18478E+013 
19200 5.15768E+013 
19250 5.13068E+013 
19300 5.1038E+013 
19350 5.07704E+013 
19400 5.05038E+013 
19450 5.02384E+013 
19500 4.99741E+013 
19550 4.97108E+013 
19600 4.94488E+013 
19650 4.91878E+013 
19700 4.89279E+013 
19750 4.86692E+013 
19800 4.84116E+013 
19850 4.81551E+013 
19900 4.78996E+013 
19950 4.76453E+013 
20000 4.73921E+013 
20050 4.714E+013 
20100 4.6889E+013 
20150 4.6639E+013 
20200 4.63902E+013 
20250 4.61425E+013 
20300 4.58958E+013 
20350 4.56503E+013 
20400 4.54058E+013 
20450 4.51624E+013 
20500 4.49201E+013 
20550 4.46789E+013 
20600 4.44387E+013 
20650 4.41996E+013 
20700 4.39616E+013 
20750 4.37247E+013 
20800 4.34888E+013 
20850 4.3254E+013 
20900 4.30203E+013 
20950 4.27876E+013 
21000 4.25559E+013 
21050 4.23253E+013 
21100 4.20958E+013 
21150 4.18673E+013 
21200 4.16399E+013 
21250 4.14135E+013 
21300 4.11881E+013 
21350 4.09638E+013 
21400 4.07405E+013 
21450 4.05183E+013 
21500 4.02971E+013 
21550 4.00769E+013 
21600 3.98577E+013 
21650 3.96396E+013 
21700 3.94225E+013 
21750 3.92063E+013 
21800 3.89912E+013 
21850 3.87772E+013 
21900 3.85641E+013 
21950 3.8352E+013 
22000 3.81409E+013 
22050 3.79309E+013 
22100 3.77218E+013 
22150 3.75137E+013 
22200 3.73066E+013 
22250 3.71005E+013 
22300 3.68953E+013 
22350 3.66912E+013 
22400 3.6488E+013 
22450 3.62858E+013 
22500 3.60846E+013 
22550 3.58843E+013 
22600 3.5685E+013 
22650 3.54867E+013 
22700 3.52893E+013 
22750 3.50929E+013 
22800 3.48975E+013 
22850 3.47029E+013 
22900 3.45094E+013 
22950 3.43167E+013 
23000 3.41251E+013 
23050 3.39343E+013 
23100 3.37445E+013 
23150 3.35556E+013 
23200 3.33676E+013 
23250 3.31806E+013 
23300 3.29945E+013 
23350 3.28093E+013 
23400 3.2625E+013 
23450 3.24417E+013 
23500 3.22592E+013 
23550 3.20777E+013 
23600 3.1897E+013 
23650 3.17173E+013 
23700 3.15384E+013 
23750 3.13604E+013 
23800 3.11834E+013 
23850 3.10072E+013 
23900 3.08319E+013 
23950 3.06574E+013 
24000 3.04839E+013 
24050 3.03112E+013 
24100 3.01394E+013 
24150 2.99685E+013 
24200 2.97984E+013 
24250 2.96292E+013 
24300 2.94608E+013 
24350 2.92933E+013 
24400 2.91266E+013 
24450 2.89608E+013 
24500 2.87959E+013 
24550 2.86317E+013 
24600 2.84684E+013 
24650 2.8306E+013 
24700 2.81444E+013 
24750 2.79836E+013 
24800 2.78236E+013 
24850 2.76644E+013 
24900 2.75061E+013 
24950 2.73486E+013 
25000 2.71919E+013 
25050 2.7036E+013 
25100 2.68809E+013 
25150 2.67266E+013 
25200 2.65731E+013 
25250 2.64204E+013 
25300 2.62685E+013 
25350 2.61174E+013 
25400 2.5967E+013 
25450 2.58175E+013 
25500 2.56687E+013 
25550 2.55207E+013 
25600 2.53735E+013 
25650 2.5227E+013 
25700 2.50813E+013 
25750 2.49364E+013 
25800 2.47922E+013 
25850 2.46488E+013 
25900 2.45062E+013 
25950 2.43643E+013 
26000 2.42231E+013 
26050 2.40827E+013 
26100 2.3943E+013 
26150 2.38041E+013 
26200 2.36659E+013 
26250 2.35284E+013 
26300 2.33916E+013 
26350 2.32556E+013 
26400 2.31203E+013 
26450 2.29858E+013 
26500 2.28519E+013 
26550 2.27187E+013 
26600 2.25863E+013 
26650 2.24546E+013 
26700 2.23235E+013 
26750 2.21932E+013 
26800 2.20636E+013 
26850 2.19346E+013 
26900 2.18064E+013 
26950 2.16788E+013 
27000 2.15519E+013 
27050 2.14257E+013 
27100 2.13002E+013 
27150 2.11754E+013 
27200 2.10512E+013 
27250 2.09277E+013 
27300 2.08049E+013 
27350 2.06827E+013 
27400 2.05612E+013 
27450 2.04404E+013 
27500 2.03202E+013 
27550 2.02006E+013 
27600 2.00817E+013 
27650 1.99635E+013 
27700 1.98459E+013 
27750 1.97289E+013 
27800 1.96126E+013 
27850 1.94969E+013 
27900 1.93818E+013 
27950 1.92674E+013 
28000 1.91535E+013 
28050 1.90404E+013 
28100 1.89278E+013 
28150 1.88158E+013 
28200 1.87045E+013 
28250 1.85938E+013 
28300 1.84836E+013 
28350 1.83741E+013 
28400 1.82652E+013 
28450 1.81569E+013 
28500 1.80491E+013 
28550 1.7942E+013 
28600 1.78355E+013 
28650 1.77295E+013 
28700 1.76242E+013 
28750 1.75194E+013 
28800 1.74152E+013 
28850 1.73116E+013 
28900 1.72085E+013 
28950 1.7106E+013 
29000 1.70041E+013 
29050 1.69028E+013 
29100 1.6802E+013 
29150 1.67018E+013 
29200 1.66021E+013 
29250 1.6503E+013 
29300 1.64044E+013 
29350 1.63064E+013 
29400 1.62089E+013 
29450 1.6112E+013 
29500 1.60157E+013 
29550 1.59198E+013 
29600 1.58245E+013 
29650 1.57298E+013 
29700 1.56355E+013 
29750 1.55418E+013 
29800 1.54486E+013 
29850 1.5356E+013 
29900 1.52638E+013 
29950 1.51722E+013 
30000 1.50811E+013 
30050 1.49905E+013 
30100 1.49004E+013 
30150 1.48108E+013 
30200 1.47218E+013 
30250 1.46332E+013 
30300 1.45451E+013 
30350 1.44576E+013 
30400 1.43705E+013 
30450 1.42839E+013 
30500 1.41978E+013 
30550 1.41122E+013 
30600 1.40271E+013 
30650 1.39425E+013 
30700 1.38583E+013 
30750 1.37746E+013 
30800 1.36914E+013 
30850 1.36087E+013 
30900 1.35264E+013 
30950 1.34446E+013 
31000 1.33633E+013 
31050 1.32825E+013 
31100 1.32021E+013 
31150 1.31221E+013 
31200 1.30426E+013 
31250 1.29636E+013 
31300 1.2885E+013 
31350 1.28069E+013 
31400 1.27292E+013 
31450 1.2652E+013 
31500 1.25752E+013 
31550 1.24988E+013 
31600 1.24229E+013 
31650 1.23475E+013 
31700 1.22724E+013 
31750 1.21978E+013 
31800 1.21236E+013 
31850 1.20499E+013 
31900 1.19765E+013 
31950 1.19036E+013 
32000 1.18311E+013 
32050 1.17591E+013 
32100 1.16874E+013 
32150 1.16162E+013 
32200 1.15453E+013 
32250 1.14749E+013 
32300 1.14049E+013 
32350 1.13353E+013 
32400 1.12661E+013 
32450 1.11973E+013 
32500 1.11288E+013 
32550 1.10608E+013 
32600 1.09932E+013 
32650 1.0926E+013 
32700 1.08592E+013 
32750 1.07927E+013 
32800 1.07267E+013 
32850 1.0661E+013 
32900 1.05957E+013 
32950 1.05308E+013 
33000 1.04662E+013 
33050 1.04021E+013 
33100 1.03383E+013 
33150 1.02749E+013 
33200 1.02118E+013 
33250 1.01492E+013 
33300 1.00869E+013 
33350 1.00249E+013 
33400 9.96333E+012 
33450 9.90211E+012 
33500 9.84125E+012 
33550 9.78074E+012 
33600 9.72059E+012 
33650 9.66079E+012 
33700 9.60134E+012 
33750 9.54224E+012 
33800 9.48348E+012 
33850 9.42507E+012 
33900 9.36701E+012 
33950 9.30928E+012 
34000 9.2519E+012 
34050 9.19485E+012 
34100 9.13814E+012 
34150 9.08176E+012 
34200 9.02572E+012 
34250 8.97E+012 
34300 8.91462E+012 
34350 8.85956E+012 
34400 8.80482E+012 
34450 8.75041E+012 
34500 8.69632E+012 
34550 8.64255E+012 
34600 8.5891E+012 
34650 8.53596E+012 
34700 8.48314E+012 
34750 8.43063E+012 
34800 8.37843E+012 
34850 8.32654E+012 
34900 8.27496E+012 
34950 8.22368E+012 
35000 8.17271E+012 
35050 8.12204E+012 
35100 8.07168E+012 
35150 8.02161E+012 
35200 7.97184E+012 
35250 7.92236E+012 
35300 7.87318E+012 
35350 7.82429E+012 
35400 7.77569E+012 
35450 7.72739E+012 
35500 7.67937E+012 
35550 7.63163E+012 
35600 7.58418E+012 
35650 7.53702E+012 
35700 7.49013E+012 
35750 7.44353E+012 
35800 7.3972E+012 
35850 7.35115E+012 
35900 7.30538E+012 
35950 7.25988E+012 
36000 7.21465E+012 
36050 7.16969E+012 
36100 7.125E+012 
36150 7.08058E+012 
36200 7.03643E+012 
36250 6.99254E+012 
36300 6.94891E+012 
36350 6.90554E+012 
36400 6.86244E+012 
36450 6.81959E+012 
36500 6.777E+012 
36550 6.73467E+012 
36600 6.69259E+012 
36650 6.65076E+012 
36700 6.60919E+012 
36750 6.56786E+012 
36800 6.52679E+012 
36850 6.48596E+012 
36900 6.44538E+012 
36950 6.40504E+012 
37000 6.36494E+012 
37050 6.32509E+012 
37100 6.28548E+012 
37150 6.2461E+012 
37200 6.20697E+012 
37250 6.16807E+012 
37300 6.1294E+012 
37350 6.09097E+012 
37400 6.05277E+012 
37450 6.0148E+012 
37500 5.97707E+012 
37550 5.93956E+012 
37600 5.90227E+012 
37650 5.86522E+012 
37700 5.82838E+012 
37750 5.79177E+012 
37800 5.75539E+012 
37850 5.71922E+012 
37900 5.68327E+012 
37950 5.64754E+012 
38000 5.61203E+012 
38050 5.57673E+012 
38100 5.54165E+012 
38150 5.50678E+012 
38200 5.47212E+012 
38250 5.43767E+012 
38300 5.40344E+012 
38350 5.36941E+012 
38400 5.33559E+012 
38450 5.30197E+012 
38500 5.26856E+012 
38550 5.23535E+012 
38600 5.20234E+012 
38650 5.16954E+012 
38700 5.13694E+012 
38750 5.10453E+012 
38800 5.07232E+012 
38850 5.04031E+012 
38900 5.00849E+012 
38950 4.97687E+012 
39000 4.94545E+012 
39050 4.91421E+012 
39100 4.88316E+012 
39150 4.85231E+012 
39200 4.82164E+012 
39250 4.79116E+012 
39300 4.76087E+012 
39350 4.73076E+012 
39400 4.70084E+012 
39450 4.6711E+012 
39500 4.64154E+012 
39550 4.61217E+012 
39600 4.58297E+012 
39650 4.55396E+012 
39700 4.52512E+012 
39750 4.49645E+012 
39800 4.46797E+012 
39850 4.43966E+012 
39900 4.41152E+012 
39950 4.38356E+012 
40000 4.35577E+012 
40050 4.32814E+012 
40100 4.30069E+012 
40150 4.27341E+012 
40200 4.24629E+012 
40250 4.21935E+012 
40300 4.19256E+012 
40350 4.16595E+012 
40400 4.13949E+012 
40450 4.11321E+012 
40500 4.08708E+012 
40550 4.06111E+012 
40600 4.0353E+012 
40650 4.00966E+012 
40700 3.98417E+012 
40750 3.95883E+012 
40800 3.93366E+012 
40850 3.90864E+012 
40900 3.88377E+012 
40950 3.85906E+012 
41000 3.8345E+012 
41050 3.8101E+012 
41100 3.78584E+012 
41150 3.76173E+012 
41200 3.73778E+012 
41250 3.71397E+012 
41300 3.69031E+012 
41350 3.66679E+012 
41400 3.64342E+012 
41450 3.6202E+012 
41500 3.59712E+012 
41550 3.57418E+012 
41600 3.55139E+012 
41650 3.52873E+012 
41700 3.50622E+012 
41750 3.48385E+012 
41800 3.46161E+012 
41850 3.43951E+012 
41900 3.41756E+012 
41950 3.39573E+012 
42000 3.37405E+012 
42050 3.35249E+012 
42100 3.33108E+012 
42150 3.30979E+012 
42200 3.28864E+012 
42250 3.26762E+012 
42300 3.24673E+012 
42350 3.22597E+012 
42400 3.20533E+012 
42450 3.18483E+012 
42500 3.16446E+012 
42550 3.14421E+012 
42600 3.12409E+012 
42650 3.10409E+012 
42700 3.08422E+012 
42750 3.06447E+012 
42800 3.04485E+012 
42850 3.02534E+012 
42900 3.00596E+012 
42950 2.9867E+012 
43000 2.96757E+012 
43050 2.94855E+012 
43100 2.92965E+012 
43150 2.91086E+012 
43200 2.8922E+012 
43250 2.87365E+012 
43300 2.85522E+012 
43350 2.8369E+012 
43400 2.8187E+012 
43450 2.80061E+012 
43500 2.78263E+012 
43550 2.76477E+012 
43600 2.74702E+012 
43650 2.72938E+012 
43700 2.71185E+012 
43750 2.69443E+012 
43800 2.67712E+012 
43850 2.65992E+012 
43900 2.64283E+012 
43950 2.62584E+012 
44000 2.60896E+012 
44050 2.59219E+012 
44100 2.57552E+012 
44150 2.55895E+012 
44200 2.54249E+012 
44250 2.52614E+012 
44300 2.50988E+012 
44350 2.49373E+012 
44400 2.47768E+012 
44450 2.46173E+012 
44500 2.44588E+012 
44550 2.43013E+012 
44600 2.41448E+012 
44650 2.39893E+012 
44700 2.38348E+012 
44750 2.36812E+012 
44800 2.35286E+012 
44850 2.3377E+012 
44900 2.32263E+012 
44950 2.30765E+012 
45000 2.29277E+012 
45050 2.27799E+012 
45100 2.2633E+012 
45150 2.2487E+012 
45200 2.23419E+012 
45250 2.21977E+012 
45300 2.20545E+012 
45350 2.19121E+012 
45400 2.17707E+012 
45450 2.16301E+012 
45500 2.14905E+012 
45550 2.13517E+012 
45600 2.12138E+012 
45650 2.10767E+012 
45700 2.09406E+012 
45750 2.08052E+012 
45800 2.06708E+012 
45850 2.05372E+012 
45900 2.04044E+012 
45950 2.02725E+012 
46000 2.01414E+012 
46050 2.00112E+012 
46100 1.98817E+012 
46150 1.97531E+012 
46200 1.96253E+012 
46250 1.94983E+012 
46300 1.93722E+012 
46350 1.92468E+012 
46400 1.91222E+012 
46450 1.89984E+012 
46500 1.88754E+012 
46550 1.87531E+012 
46600 1.86317E+012 
46650 1.8511E+012 
46700 1.83911E+012 
46750 1.82719E+012 
46800 1.81535E+012 
46850 1.80358E+012 
46900 1.79189E+012 
46950 1.78028E+012 
47000 1.76873E+012 
47050 1.75727E+012 
47100 1.74587E+012 
47150 1.73454E+012 
47200 1.72329E+012 
47250 1.71211E+012 
47300 1.701E+012 
47350 1.68996E+012 
47400 1.67899E+012 
47450 1.6681E+012 
47500 1.65727E+012 
47550 1.64651E+012 
47600 1.63581E+012 
47650 1.62519E+012 
47700 1.61463E+012 
47750 1.60414E+012 
47800 1.59372E+012 
47850 1.58337E+012 
47900 1.57308E+012 
47950 1.56285E+012 
48000 1.55269E+012 
48050 1.5426E+012 
48100 1.53257E+012 
48150 1.5226E+012 
48200 1.5127E+012 
48250 1.50286E+012 
48300 1.49309E+012 
48350 1.48337E+012 
48400 1.47372E+012 
48450 1.46413E+012 
48500 1.4546E+012 
48550 1.44513E+012 
48600 1.43572E+012 
48650 1.42638E+012 
48700 1.41709E+012 
48750 1.40786E+012 
48800 1.39869E+012 
48850 1.38958E+012 
48900 1.38053E+012 
48950 1.37153E+012 
49000 1.36259E+012 
49050 1.35371E+012 
49100 1.34489E+012 
49150 1.33613E+012 
49200 1.32741E+012 
49250 1.31876E+012 
49300 1.31016E+012 
49350 1.30161E+012 
49400 1.29313E+012 
49450 1.28469E+012 
49500 1.27631E+012 
49550 1.26798E+012 
49600 1.25971E+012 
49650 1.25149E+012 
49700 1.24332E+012 
49750 1.2352E+012 
49800 1.22714E+012 
49850 1.21913E+012 
49900 1.21117E+012 
49950 1.20326E+012 
50000 1.1954E+012 
50050 1.18759E+012 
50100 1.17983E+012 
50150 1.17212E+012 
50200 1.16446E+012 
50250 1.15685E+012 
50300 1.14929E+012 
50350 1.14178E+012 
50400 1.13432E+012 
50450 1.1269E+012 
50500 1.11953E+012 
50550 1.11221E+012 
50600 1.10494E+012 
50650 1.09771E+012 
50700 1.09053E+012 
50750 1.08339E+012 
50800 1.0763E+012 
50850 1.06926E+012 
50900 1.06226E+012 
50950 1.05531E+012 
51000 1.0484E+012 
51050 1.04154E+012 
51100 1.03472E+012 
51150 1.02795E+012 
51200 1.02121E+012 
51250 1.01453E+012 
51300 1.00788E+012 
51350 1.00128E+012 
51400 9.94718E+011 
51450 9.882E+011 
51500 9.81725E+011 
51550 9.75291E+011 
51600 9.68899E+011 
51650 9.62548E+011 
51700 9.56237E+011 
51750 9.49968E+011 
51800 9.43739E+011 
51850 9.37551E+011 
51900 9.31402E+011 
51950 9.25293E+011 
52000 9.19223E+011 
52050 9.13193E+011 
52100 9.07201E+011 
52150 9.01249E+011 
52200 8.95334E+011 
52250 8.89458E+011 
52300 8.8362E+011 
52350 8.7782E+011 
52400 8.72057E+011 
52450 8.66331E+011 
52500 8.60642E+011 
52550 8.54991E+011 
52600 8.49375E+011 
52650 8.43796E+011 
52700 8.38253E+011 
52750 8.32746E+011 
52800 8.27275E+011 
52850 8.21839E+011 
52900 8.16438E+011 
52950 8.11072E+011 
53000 8.05742E+011 
53050 8.00445E+011 
53100 7.95183E+011 
53150 7.89954E+011 
53200 7.8476E+011 
53250 7.79599E+011 
53300 7.74472E+011 
53350 7.69378E+011 
53400 7.64317E+011 
53450 7.59289E+011 
53500 7.54294E+011 
53550 7.4933E+011 
53600 7.444E+011 
53650 7.39501E+011 
53700 7.34633E+011 
53750 7.29798E+011 
53800 7.24993E+011 
53850 7.2022E+011 
53900 7.15478E+011 
53950 7.10767E+011 
54000 7.06086E+011 
54050 7.01436E+011 
54100 6.96816E+011 
54150 6.92226E+011 
54200 6.87665E+011 
54250 6.83134E+011 
54300 6.78633E+011 
54350 6.74161E+011 
54400 6.69718E+011 
54450 6.65304E+011 
54500 6.60919E+011 
54550 6.56562E+011 
54600 6.52233E+011 
54650 6.47933E+011 
54700 6.4366E+011 
54750 6.39415E+011 
54800 6.35198E+011 
54850 6.31009E+011 
54900 6.26846E+011 
54950 6.22711E+011 
55000 6.18603E+011 
55050 6.14521E+011 
55100 6.10466E+011 
55150 6.06437E+011 
55200 6.02435E+011 
55250 5.98458E+011 
55300 5.94508E+011 
55350 5.90583E+011 
55400 5.86684E+011 
55450 5.8281E+011 
55500 5.78962E+011 
55550 5.75138E+011 
55600 5.7134E+011 
55650 5.67566E+011 
55700 5.63817E+011 
55750 5.60092E+011 
55800 5.56392E+011 
55850 5.52715E+011 
55900 5.49063E+011 
55950 5.45435E+011 
56000 5.4183E+011 
56050 5.38248E+011 
56100 5.3469E+011 
56150 5.31156E+011 
56200 5.27644E+011 
56250 5.24155E+011 
56300 5.20689E+011 
56350 5.17246E+011 
56400 5.13825E+011 
56450 5.10426E+011 
56500 5.0705E+011 
56550 5.03696E+011 
56600 5.00363E+011 
56650 4.97053E+011 
56700 4.93764E+011 
56750 4.90496E+011 
56800 4.8725E+011 
56850 4.84025E+011 
56900 4.80822E+011 
56950 4.77639E+011 
57000 4.74477E+011 
57050 4.71335E+011 
57100 4.68214E+011 
57150 4.65114E+011 
57200 4.62034E+011 
57250 4.58974E+011 
57300 4.55934E+011 
57350 4.52914E+011 
57400 4.49913E+011 
57450 4.46933E+011 
57500 4.43972E+011 
57550 4.4103E+011 
57600 4.38107E+011 
57650 4.35204E+011 
57700 4.32319E+011 
57750 4.29454E+011 
57800 4.26607E+011 
57850 4.23779E+011 
57900 4.2097E+011 
57950 4.18178E+011 
58000 4.15405E+011 
58050 4.12651E+011 
58100 4.09914E+011 
58150 4.07195E+011 
58200 4.04495E+011 
58250 4.01811E+011 
58300 3.99146E+011 
58350 3.96498E+011 
58400 3.93867E+011 
58450 3.91253E+011 
58500 3.88657E+011 
58550 3.86078E+011 
58600 3.83515E+011 
58650 3.8097E+011 
58700 3.78441E+011 
58750 3.75929E+011 
58800 3.73433E+011 
58850 3.70953E+011 
58900 3.6849E+011 
58950 3.66043E+011 
59000 3.63613E+011 
59050 3.61198E+011 
59100 3.58798E+011 
59150 3.56415E+011 
59200 3.54047E+011 
59250 3.51695E+011 
59300 3.49359E+011 
59350 3.47037E+011 
59400 3.44731E+011 
59450 3.42441E+011 
59500 3.40165E+011 
59550 3.37904E+011 
59600 3.35658E+011 
59650 3.33426E+011 
59700 3.3121E+011 
59750 3.29008E+011 
59800 3.2682E+011 
59850 3.24647E+011 
59900 3.22489E+011 
59950 3.20344E+011 
60000 3.18213E+011 
60050 3.16097E+011 
60100 3.13994E+011 
60150 3.11905E+011 
60200 3.0983E+011 
60250 3.07769E+011 
60300 3.05721E+011 
60350 3.03687E+011 
60400 3.01666E+011 
60450 2.99659E+011 
60500 2.97664E+011 
60550 2.95683E+011 
60600 2.93715E+011 
60650 2.91759E+011 
60700 2.89817E+011 
60750 2.87888E+011 
60800 2.85971E+011 
60850 2.84067E+011 
60900 2.82175E+011 
60950 2.80296E+011 
61000 2.78429E+011 
61050 2.76574E+011 
61100 2.74732E+011 
61150 2.72902E+011 
61200 2.71084E+011 
61250 2.69278E+011 
61300 2.67484E+011 
61350 2.65701E+011 
61400 2.63931E+011 
61450 2.62172E+011 
61500 2.60425E+011 
61550 2.58689E+011 
61600 2.56965E+011 
61650 2.55252E+011 
61700 2.5355E+011 
61750 2.5186E+011 
61800 2.5018E+011 
61850 2.48512E+011 
61900 2.46855E+011 
61950 2.45209E+011 
62000 2.43574E+011 
62050 2.41949E+011 
62100 2.40335E+011 
62150 2.38732E+011 
62200 2.37139E+011 
62250 2.35558E+011 
62300 2.33986E+011 
62350 2.32425E+011 
62400 2.30874E+011 
62450 2.29333E+011 
62500 2.27803E+011 
62550 2.26282E+011 
62600 2.24772E+011 
62650 2.23272E+011 
62700 2.21782E+011 
62750 2.20301E+011 
62800 2.1883E+011 
62850 2.17369E+011 
62900 2.15918E+011 
62950 2.14476E+011 
63000 2.13044E+011 
63050 2.11621E+011 
63100 2.10208E+011 
63150 2.08804E+011 
63200 2.07409E+011 
63250 2.06024E+011 
63300 2.04647E+011 
63350 2.0328E+011 
63400 2.01922E+011 
63450 2.00573E+011 
63500 1.99233E+011 
63550 1.97901E+011 
63600 1.96579E+011 
63650 1.95265E+011 
63700 1.9396E+011 
63750 1.92664E+011 
63800 1.91376E+011 
63850 1.90096E+011 
63900 1.88826E+011 
63950 1.87563E+011 
64000 1.86309E+011 
64050 1.85063E+011 
64100 1.83826E+011 
64150 1.82597E+011 
64200 1.81375E+011 
64250 1.80162E+011 
64300 1.78957E+011 
64350 1.7776E+011 
64400 1.76571E+011 
64450 1.7539E+011 
64500 1.74217E+011 
64550 1.73051E+011 
64600 1.71893E+011 
64650 1.70743E+011 
64700 1.696E+011 
64750 1.68465E+011 
64800 1.67338E+011 
64850 1.66218E+011 
64900 1.65105E+011 
64950 1.64E+011 
65000 1.62903E+011 
65050 1.61812E+011 
65100 1.60729E+011 
65150 1.59652E+011 
65200 1.58584E+011 
65250 1.57522E+011 
65300 1.56467E+011 
65350 1.55419E+011 
65400 1.54378E+011 
65450 1.53344E+011 
65500 1.52317E+011 
65550 1.51297E+011 
65600 1.50283E+011 
65650 1.49277E+011 
65700 1.48277E+011 
65750 1.47283E+011 
65800 1.46296E+011 
65850 1.45316E+011 
65900 1.44342E+011 
65950 1.43375E+011 
66000 1.42414E+011 
66050 1.4146E+011 
66100 1.40511E+011 
66150 1.3957E+011 
66200 1.38634E+011 
66250 1.37705E+011 
66300 1.36782E+011 
66350 1.35865E+011 
66400 1.34954E+011 
66450 1.34049E+011 
66500 1.3315E+011 
66550 1.32257E+011 
66600 1.3137E+011 
66650 1.30489E+011 
66700 1.29614E+011 
66750 1.28745E+011 
66800 1.27881E+011 
66850 1.27023E+011 
66900 1.26171E+011 
66950 1.25325E+011 
67000 1.24484E+011 
67050 1.23649E+011 
67100 1.22819E+011 
67150 1.21995E+011 
67200 1.21176E+011 
67250 1.20363E+011 
67300 1.19555E+011 
67350 1.18753E+011 
67400 1.17956E+011 
67450 1.17164E+011 
67500 1.16377E+011 
67550 1.15596E+011 
67600 1.1482E+011 
67650 1.14049E+011 
67700 1.13283E+011 
67750 1.12523E+011 
67800 1.11767E+011 
67850 1.11017E+011 
67900 1.10271E+011 
67950 1.09531E+011 
68000 1.08795E+011 
68050 1.08064E+011 
68100 1.07338E+011 
68150 1.06618E+011 
68200 1.05901E+011 
68250 1.0519E+011 
68300 1.04483E+011 
68350 1.03781E+011 
68400 1.03084E+011 
68450 1.02391E+011 
68500 1.01703E+011 
68550 1.0102E+011 
68600 1.00341E+011 
68650 9.96665E+010 
68700 9.89966E+010 
68750 9.83312E+010 
68800 9.76703E+010 
68850 9.70138E+010 
68900 9.63616E+010 
68950 9.57138E+010 
69000 9.50703E+010 
69050 9.44311E+010 
69100 9.37962E+010 
69150 9.31655E+010 
69200 9.2539E+010 
69250 9.19167E+010 
69300 9.12986E+010 
69350 9.06845E+010 
69400 9.00746E+010 
69450 8.94688E+010 
69500 8.8867E+010 
69550 8.82692E+010 
69600 8.76754E+010 
69650 8.70856E+010 
69700 8.64997E+010 
69750 8.59178E+010 
69800 8.53397E+010 
69850 8.47655E+010 
69900 8.41951E+010 
69950 8.36285E+010 
70000 8.30657E+010 
70050 8.25067E+010 
70100 8.19514E+010 
70150 8.13998E+010 
70200 8.08519E+010 
70250 8.03077E+010 
70300 7.97671E+010 
70350 7.92301E+010 
70400 7.86967E+010 
70450 7.81669E+010 
70500 7.76406E+010 
70550 7.71178E+010 
70600 7.65986E+010 
70650 7.60828E+010 
70700 7.55704E+010 
70750 7.50615E+010 
70800 7.4556E+010 
70850 7.40539E+010 
70900 7.35551E+010 
70950 7.30596E+010 
71000 7.25675E+010 
71050 7.20787E+010 
71100 7.15931E+010 
71150 7.11108E+010 
71200 7.06317E+010 
71250 7.01558E+010 
71300 6.96831E+010 
71350 6.92136E+010 
71400 6.87472E+010 
71450 6.82839E+010 
71500 6.78238E+010 
71550 6.73667E+010 
71600 6.69127E+010 
71650 6.64617E+010 
71700 6.60137E+010 
71750 6.55687E+010 
71800 6.51267E+010 
71850 6.46877E+010 
71900 6.42516E+010 
71950 6.38185E+010 
72000 6.33882E+010 
72050 6.29608E+010 
72100 6.25363E+010 
72150 6.21146E+010 
72200 6.16958E+010 
72250 6.12797E+010 
72300 6.08664E+010 
72350 6.04559E+010 
72400 6.00482E+010 
72450 5.96432E+010 
72500 5.92409E+010 
72550 5.88413E+010 
72600 5.84444E+010 
72650 5.80501E+010 
72700 5.76585E+010 
72750 5.72695E+010 
72800 5.68831E+010 
72850 5.64993E+010 
72900 5.61181E+010 
72950 5.57394E+010 
73000 5.53633E+010 
73050 5.49897E+010 
73100 5.46186E+010 
73150 5.425E+010 
73200 5.38839E+010 
73250 5.35202E+010 
73300 5.31589E+010 
73350 5.28001E+010 
73400 5.24437E+010 
73450 5.20897E+010 
73500 5.1738E+010 
73550 5.13887E+010 
73600 5.10418E+010 
73650 5.06972E+010 
73700 5.03549E+010 
73750 5.00149E+010 
73800 4.96771E+010 
73850 4.93417E+010 
73900 4.90085E+010 
73950 4.86775E+010 
74000 4.83487E+010 
74050 4.80222E+010 
74100 4.76979E+010 
74150 4.73757E+010 
74200 4.70557E+010 
74250 4.67378E+010 
74300 4.64221E+010 
74350 4.61085E+010 
74400 4.5797E+010 
74450 4.54876E+010 
74500 4.51802E+010 
74550 4.4875E+010 
74600 4.45717E+010 
74650 4.42706E+010 
74700 4.39714E+010 
74750 4.36743E+010 
74800 4.33791E+010 
74850 4.30859E+010 
74900 4.27947E+010 
74950 4.25055E+010 
75000 4.22182E+010 
75050 4.19328E+010 
75100 4.16494E+010 
75150 4.13678E+010 
75200 4.10882E+010 
75250 4.08104E+010 
75300 4.05345E+010 
75350 4.02604E+010 
75400 3.99882E+010 
75450 3.97179E+010 
75500 3.94493E+010 
75550 3.91825E+010 
75600 3.89176E+010 
75650 3.86544E+010 
75700 3.8393E+010 
75750 3.81333E+010 
75800 3.78754E+010 
75850 3.76192E+010 
75900 3.73648E+010 
75950 3.7112E+010 
76000 3.6861E+010 
76050 3.66116E+010 
76100 3.6364E+010 
76150 3.6118E+010 
76200 3.58736E+010 
76250 3.56309E+010 
76300 3.53898E+010 
76350 3.51504E+010 
76400 3.49125E+010 
76450 3.46763E+010 
76500 3.44416E+010 
76550 3.42086E+010 
76600 3.3977E+010 
76650 3.37471E+010 
76700 3.35187E+010 
76750 3.32918E+010 
76800 3.30665E+010 
76850 3.28427E+010 
76900 3.26204E+010 
76950 3.23996E+010 
77000 3.21802E+010 
77050 3.19624E+010 
77100 3.1746E+010 
77150 3.15311E+010 
77200 3.13176E+010 
77250 3.11055E+010 
77300 3.08949E+010 
77350 3.06857E+010 
77400 3.04779E+010 
77450 3.02715E+010 
77500 3.00666E+010 
77550 2.98629E+010 
77600 2.96607E+010 
77650 2.94598E+010 
77700 2.92603E+010 
77750 2.90621E+010 
77800 2.88652E+010 
77850 2.86697E+010 
77900 2.84755E+010 
77950 2.82826E+010 
78000 2.8091E+010 
78050 2.79007E+010 
78100 2.77117E+010 
78150 2.75239E+010 
78200 2.73374E+010 
78250 2.71522E+010 
78300 2.69682E+010 
78350 2.67855E+010 
78400 2.6604E+010 
78450 2.64237E+010 
78500 2.62446E+010 
78550 2.60668E+010 
78600 2.58901E+010 
78650 2.57146E+010 
78700 2.55404E+010 
78750 2.53673E+010 
78800 2.51953E+010 
78850 2.50245E+010 
78900 2.48549E+010 
78950 2.46864E+010 
79000 2.4519E+010 
79050 2.43528E+010 
79100 2.41877E+010 
79150 2.40237E+010 
79200 2.38608E+010 
79250 2.36991E+010 
79300 2.35384E+010 
79350 2.33788E+010 
79400 2.32202E+010 
79450 2.30628E+010 
79500 2.29064E+010 
79550 2.2751E+010 
79600 2.25967E+010 
79650 2.24435E+010 
79700 2.22912E+010 
79750 2.214E+010 
79800 2.19899E+010 
79850 2.18407E+010 
79900 2.16926E+010 
79950 2.15454E+010 
80000 2.13993E+010 
80050 2.12541E+010 
80100 2.11099E+010 
80150 2.09667E+010 
80200 2.08244E+010 
80250 2.06831E+010 
80300 2.05428E+010 
80350 2.04034E+010 
80400 2.0265E+010 
80450 2.01274E+010 
80500 1.99909E+010 
80550 1.98552E+010 
80600 1.97205E+010 
80650 1.95866E+010 
80700 1.94537E+010 
80750 1.93216E+010 
80800 1.91905E+010 
80850 1.90603E+010 
80900 1.89309E+010 
80950 1.88024E+010 
81000 1.86747E+010 
81050 1.8548E+010 
81100 1.84221E+010 
81150 1.8297E+010 
81200 1.81728E+010 
81250 1.80494E+010 
81300 1.79268E+010 
81350 1.78051E+010 
81400 1.76842E+010 
81450 1.75641E+010 
81500 1.74449E+010 
81550 1.73264E+010 
81600 1.72088E+010 
81650 1.70919E+010 
81700 1.69758E+010 
81750 1.68605E+010 
81800 1.6746E+010 
81850 1.66323E+010 
81900 1.65193E+010 
81950 1.64071E+010 
82000 1.62957E+010 
82050 1.6185E+010 
82100 1.6075E+010 
82150 1.59658E+010 
82200 1.58574E+010 
82250 1.57497E+010 
82300 1.56426E+010 
82350 1.55364E+010 
82400 1.54308E+010 
82450 1.5326E+010 
82500 1.52219E+010 
82550 1.51184E+010 
82600 1.50157E+010 
82650 1.49137E+010 
82700 1.48123E+010 
82750 1.47117E+010 
82800 1.46117E+010 
82850 1.45124E+010 
82900 1.44138E+010 
82950 1.43158E+010 
83000 1.42185E+010 
83050 1.41218E+010 
83100 1.40259E+010 
83150 1.39305E+010 
83200 1.38358E+010 
83250 1.37418E+010 
83300 1.36484E+010 
83350 1.35556E+010 
83400 1.34634E+010 
83450 1.33719E+010 
83500 1.3281E+010 
83550 1.31907E+010 
83600 1.3101E+010 
83650 1.30119E+010 
83700 1.29235E+010 
83750 1.28356E+010 
83800 1.27483E+010 
83850 1.26616E+010 
83900 1.25755E+010 
83950 1.249E+010 
84000 1.24051E+010 
84050 1.23207E+010 
84100 1.22369E+010 
84150 1.21537E+010 
84200 1.2071E+010 
84250 1.19889E+010 
84300 1.19074E+010 
84350 1.18264E+010 
84400 1.17459E+010 
84450 1.1666E+010 
84500 1.15867E+010 
84550 1.15079E+010 
84600 1.14296E+010 
84650 1.13518E+010 
84700 1.12746E+010 
84750 1.11979E+010 
84800 1.11217E+010 
84850 1.1046E+010 
84900 1.09709E+010 
84950 1.08962E+010 
85000 1.08221E+010 
85050 1.07484E+010 
85100 1.06753E+010 
85150 1.06026E+010 
85200 1.05305E+010 
85250 1.04588E+010 
85300 1.03876E+010 
85350 1.03169E+010 
85400 1.02467E+010 
85450 1.0177E+010 
85500 1.01077E+010 
85550 1.00389E+010 
85600 9.97058E+009 
85650 9.90271E+009 
85700 9.8353E+009 
85750 9.76835E+009 
85800 9.70185E+009 
85850 9.63581E+009 
85900 9.57021E+009 
85950 9.50505E+009 
86000 9.44034E+009 
86050 9.37607E+009 
86100 9.31223E+009 
86150 9.24883E+009 
86200 9.18585E+009 
86250 9.1233E+009 
86300 9.06118E+009 
86350 8.99948E+009 
86400 8.93819E+009 
86450 8.87733E+009 
86500 8.81687E+009 
86550 8.75683E+009 
86600 8.69719E+009 
86650 8.63796E+009 
86700 8.57913E+009 
86750 8.52069E+009 
86800 8.46266E+009 
86850 8.40502E+009 
86900 8.34777E+009 
86950 8.2909E+009 
87000 8.23443E+009 
87050 8.17834E+009 
87100 8.12262E+009 
87150 8.06729E+009 
87200 8.01233E+009 
87250 7.95774E+009 
87300 7.90353E+009 
87350 7.84968E+009 
87400 7.7962E+009 
87450 7.74308E+009 
87500 7.69032E+009 
87550 7.63792E+009 
87600 7.58588E+009 
87650 7.53419E+009 
87700 7.48285E+009 
87750 7.43186E+009 
87800 7.38121E+009 
87850 7.33091E+009 
87900 7.28095E+009 
87950 7.23133E+009 
88000 7.18204E+009 
88050 7.13309E+009 
88100 7.08448E+009 
88150 7.03619E+009 
88200 6.98823E+009 
88250 6.9406E+009 
88300 6.89329E+009 
88350 6.8463E+009 
88400 6.79963E+009 
88450 6.75328E+009 
88500 6.70724E+009 
88550 6.66152E+009 
88600 6.6161E+009 
88650 6.571E+009 
88700 6.5262E+009 
88750 6.4817E+009 
88800 6.43751E+009 
88850 6.39362E+009 
88900 6.35003E+009 
88950 6.30673E+009 
89000 6.26372E+009 
89050 6.22101E+009 
89100 6.17859E+009 
89150 6.13646E+009 
89200 6.09461E+009 
89250 6.05305E+009 
89300 6.01177E+009 
89350 5.97077E+009 
89400 5.93005E+009 
89450 5.8896E+009 
89500 5.84944E+009 
89550 5.80954E+009 
89600 5.76991E+009 
89650 5.73056E+009 
89700 5.69147E+009 
89750 5.65265E+009 
89800 5.61409E+009 
89850 5.57579E+009 
89900 5.53776E+009 
89950 5.49998E+009 
90000 5.46246E+009 
90050 5.42519E+009 
90100 5.38818E+009 
90150 5.35142E+009 
90200 5.31491E+009 
90250 5.27865E+009 
90300 5.24263E+009 
90350 5.20686E+009 
90400 5.17133E+009 
90450 5.13604E+009 
90500 5.101E+009 
90550 5.06619E+009 
90600 5.03162E+009 
90650 4.99728E+009 
90700 4.96318E+009 
90750 4.92931E+009 
90800 4.89567E+009 
90850 4.86226E+009 
90900 4.82907E+009 
90950 4.79612E+009 
91000 4.76338E+009 
91050 4.73087E+009 
91100 4.69858E+009 
91150 4.66651E+009 
91200 4.63466E+009 
91250 4.60302E+009 
91300 4.5716E+009 
91350 4.54039E+009 
91400 4.5094E+009 
91450 4.47861E+009 
91500 4.44804E+009 
91550 4.41767E+009 
91600 4.38751E+009 
91650 4.35756E+009 
91700 4.32781E+009 
91750 4.29826E+009 
91800 4.26891E+009 
91850 4.23977E+009 
91900 4.21082E+009 
91950 4.18207E+009 
92000 4.15351E+009 
92050 4.12515E+009 
92100 4.09698E+009 
92150 4.069E+009 
92200 4.04122E+009 
92250 4.01362E+009 
92300 3.98621E+009 
92350 3.95899E+009 
92400 3.93195E+009 
92450 3.9051E+009 
92500 3.87843E+009 
92550 3.85194E+009 
92600 3.82563E+009 
92650 3.7995E+009 
92700 3.77355E+009 
92750 3.74777E+009 
92800 3.72217E+009 
92850 3.69675E+009 
92900 3.67149E+009 
92950 3.64641E+009 
93000 3.6215E+009 
93050 3.59676E+009 
93100 3.57219E+009 
93150 3.54779E+009 
93200 3.52355E+009 
93250 3.49948E+009 
93300 3.47557E+009 
93350 3.45182E+009 
93400 3.42824E+009 
93450 3.40482E+009 
93500 3.38155E+009 
93550 3.35845E+009 
93600 3.3355E+009 
93650 3.31271E+009 
93700 3.29007E+009 
93750 3.26759E+009 
93800 3.24526E+009 
93850 3.22308E+009 
93900 3.20106E+009 
93950 3.17918E+009 
94000 3.15745E+009 
94050 3.13588E+009 
94100 3.11444E+009 
94150 3.09316E+009 
94200 3.07202E+009 
94250 3.05102E+009 
94300 3.03017E+009 
94350 3.00946E+009 
94400 2.98889E+009 
94450 2.96845E+009 
94500 2.94817E+009 
94550 2.92801E+009 
94600 2.908E+009 
94650 2.88812E+009 
94700 2.86838E+009 
94750 2.84877E+009 
94800 2.82929E+009 
94850 2.80995E+009 
94900 2.79074E+009 
94950 2.77166E+009 
95000 2.75271E+009 
95050 2.73389E+009 
95100 2.7152E+009 
95150 2.69663E+009 
95200 2.67819E+009 
95250 2.65988E+009 
95300 2.64169E+009 
95350 2.62363E+009 
95400 2.60569E+009 
95450 2.58787E+009 
95500 2.57018E+009 
95550 2.5526E+009 
95600 2.53514E+009 
95650 2.51781E+009 
95700 2.50059E+009 
95750 2.48349E+009 
95800 2.4665E+009 
95850 2.44963E+009 
95900 2.43288E+009 
95950 2.41624E+009 
96000 2.39972E+009 
96050 2.3833E+009 
96100 2.367E+009 
96150 2.35081E+009 
96200 2.33473E+009 
96250 2.31876E+009 
96300 2.3029E+009 
96350 2.28715E+009 
96400 2.2715E+009 
96450 2.25596E+009 
96500 2.24053E+009 
96550 2.2252E+009 
96600 2.20998E+009 
96650 2.19486E+009 
96700 2.17984E+009 
96750 2.16493E+009 
96800 2.15012E+009 
96850 2.13541E+009 
96900 2.1208E+009 
96950 2.10629E+009 
97000 2.09187E+009 
97050 2.07756E+009 
97100 2.06335E+009 
97150 2.04923E+009 
97200 2.0352E+009 
97250 2.02128E+009 
97300 2.00745E+009 
97350 1.99371E+009 
97400 1.98007E+009 
97450 1.96652E+009 
97500 1.95306E+009 
97550 1.93969E+009 
97600 1.92642E+009 
97650 1.91323E+009 
97700 1.90014E+009 
97750 1.88713E+009 
97800 1.87422E+009 
97850 1.86139E+009 
97900 1.84865E+009 
97950 1.836E+009 
98000 1.82343E+009 
98050 1.81095E+009 
98100 1.79855E+009 
98150 1.78624E+009 
98200 1.77401E+009 
98250 1.76187E+009 
98300 1.74981E+009 
98350 1.73783E+009 
98400 1.72593E+009 
98450 1.71412E+009 
98500 1.70239E+009 
98550 1.69073E+009 
98600 1.67915E+009 
98650 1.66766E+009 
98700 1.65624E+009 
98750 1.6449E+009 
98800 1.63364E+009 
98850 1.62246E+009 
98900 1.61135E+009 
98950 1.60031E+009 
99000 1.58936E+009 
99050 1.57847E+009 
99100 1.56766E+009 
99150 1.55693E+009 
99200 1.54627E+009 
99250 1.53568E+009 
99300 1.52516E+009 
99350 1.51472E+009 
99400 1.50435E+009 
99450 1.49404E+009 
99500 1.48381E+009 
99550 1.47365E+009 
99600 1.46356E+009 
99650 1.45353E+009 
99700 1.44358E+009 
99750 1.43369E+009 
99800 1.42387E+009 
99850 1.41412E+009 
99900 1.40443E+009 
99950 1.39481E+009 
100000 1.38526E+009 
