#F U:\Beamline I20\I20-2_EDE\Wigglers\xop\83mm-small-wiggler\EDE wiggler\1p2T-300mA-0p12x0p8mrad.dat
#C I20EDE 1.2T 300mA 0.12x0.8mrad
#S 1 File written by xplot on Tue Dec 07 18:15:12 2010
#N 2
#L    Energy [eV]  Flux [ph/s/0.1%bw]
50 5.51256E+012 
100 8.74371E+012 
150 1.14415E+013 
200 1.38356E+013 
250 1.60211E+013 
300 1.80495E+013 
350 1.99522E+013 
400 2.17505E+013 
450 2.34596E+013 
500 2.50908E+013 
550 2.66529E+013 
600 2.81528E+013 
650 2.95962E+013 
700 3.09877E+013 
750 3.23312E+013 
800 3.36301E+013 
850 3.48873E+013 
900 3.61053E+013 
950 3.72862E+013 
1000 3.84321E+013 
1050 3.95446E+013 
1100 4.06254E+013 
1150 4.16758E+013 
1200 4.26971E+013 
1250 4.36906E+013 
1300 4.46572E+013 
1350 4.55981E+013 
1400 4.6514E+013 
1450 4.74058E+013 
1500 4.82744E+013 
1550 4.91205E+013 
1600 4.99447E+013 
1650 5.07478E+013 
1700 5.15303E+013 
1750 5.22927E+013 
1800 5.30358E+013 
1850 5.376E+013 
1900 5.44657E+013 
1950 5.51534E+013 
2000 5.58237E+013 
2050 5.64768E+013 
2100 5.71133E+013 
2150 5.77335E+013 
2200 5.83378E+013 
2250 5.89266E+013 
2300 5.95001E+013 
2350 6.00588E+013 
2400 6.06029E+013 
2450 6.11327E+013 
2500 6.16486E+013 
2550 6.21509E+013 
2600 6.26398E+013 
2650 6.31156E+013 
2700 6.35785E+013 
2750 6.40288E+013 
2800 6.44668E+013 
2850 6.48927E+013 
2900 6.53067E+013 
2950 6.57091E+013 
3000 6.61E+013 
3050 6.64797E+013 
3100 6.68484E+013 
3150 6.72063E+013 
3200 6.75535E+013 
3250 6.78904E+013 
3300 6.8217E+013 
3350 6.85336E+013 
3400 6.88403E+013 
3450 6.91373E+013 
3500 6.94248E+013 
3550 6.97029E+013 
3600 6.99718E+013 
3650 7.02317E+013 
3700 7.04828E+013 
3750 7.07251E+013 
3800 7.09588E+013 
3850 7.11841E+013 
3900 7.14011E+013 
3950 7.161E+013 
4000 7.18109E+013 
4050 7.20039E+013 
4100 7.21892E+013 
4150 7.23669E+013 
4200 7.25371E+013 
4250 7.26999E+013 
4300 7.28555E+013 
4350 7.3004E+013 
4400 7.31455E+013 
4450 7.32802E+013 
4500 7.34081E+013 
4550 7.35293E+013 
4600 7.36441E+013 
4650 7.37523E+013 
4700 7.38543E+013 
4750 7.39501E+013 
4800 7.40397E+013 
4850 7.41234E+013 
4900 7.42011E+013 
4950 7.4273E+013 
5000 7.43392E+013 
5050 7.43998E+013 
5100 7.44549E+013 
5150 7.45045E+013 
5200 7.45488E+013 
5250 7.45879E+013 
5300 7.46218E+013 
5350 7.46505E+013 
5400 7.46743E+013 
5450 7.46932E+013 
5500 7.47073E+013 
5550 7.47166E+013 
5600 7.47212E+013 
5650 7.47213E+013 
5700 7.47169E+013 
5750 7.4708E+013 
5800 7.46947E+013 
5850 7.46772E+013 
5900 7.46554E+013 
5950 7.46295E+013 
6000 7.45996E+013 
6050 7.45656E+013 
6100 7.45277E+013 
6150 7.4486E+013 
6200 7.44404E+013 
6250 7.43911E+013 
6300 7.43382E+013 
6350 7.42816E+013 
6400 7.42215E+013 
6450 7.41579E+013 
6500 7.4091E+013 
6550 7.40206E+013 
6600 7.39469E+013 
6650 7.38701E+013 
6700 7.379E+013 
6750 7.37068E+013 
6800 7.36205E+013 
6850 7.35313E+013 
6900 7.3439E+013 
6950 7.33439E+013 
7000 7.32459E+013 
7050 7.31451E+013 
7100 7.30416E+013 
7150 7.29353E+013 
7200 7.28265E+013 
7250 7.2715E+013 
7300 7.2601E+013 
7350 7.24844E+013 
7400 7.23655E+013 
7450 7.22441E+013 
7500 7.21203E+013 
7550 7.19942E+013 
7600 7.18659E+013 
7650 7.17353E+013 
7700 7.16026E+013 
7750 7.14677E+013 
7800 7.13307E+013 
7850 7.11917E+013 
7900 7.10506E+013 
7950 7.09076E+013 
8000 7.07626E+013 
8050 7.06158E+013 
8100 7.04671E+013 
8150 7.03165E+013 
8200 7.01642E+013 
8250 7.00102E+013 
8300 6.98544E+013 
8350 6.9697E+013 
8400 6.95379E+013 
8450 6.93773E+013 
8500 6.92151E+013 
8550 6.90513E+013 
8600 6.88861E+013 
8650 6.87194E+013 
8700 6.85513E+013 
8750 6.83817E+013 
8800 6.82108E+013 
8850 6.80386E+013 
8900 6.78651E+013 
8950 6.76903E+013 
9000 6.75143E+013 
9050 6.7337E+013 
9100 6.71586E+013 
9150 6.69791E+013 
9200 6.67984E+013 
9250 6.66166E+013 
9300 6.64337E+013 
9350 6.62498E+013 
9400 6.60649E+013 
9450 6.58791E+013 
9500 6.56922E+013 
9550 6.55044E+013 
9600 6.53158E+013 
9650 6.51262E+013 
9700 6.49358E+013 
9750 6.47445E+013 
9800 6.45525E+013 
9850 6.43596E+013 
9900 6.4166E+013 
9950 6.39717E+013 
10000 6.37766E+013 
10050 6.35809E+013 
10100 6.33845E+013 
10150 6.31874E+013 
10200 6.29897E+013 
10250 6.27914E+013 
10300 6.25926E+013 
10350 6.23931E+013 
10400 6.21931E+013 
10450 6.19927E+013 
10500 6.17916E+013 
10550 6.15902E+013 
10600 6.13882E+013 
10650 6.11858E+013 
10700 6.0983E+013 
10750 6.07798E+013 
10800 6.05762E+013 
10850 6.03722E+013 
10900 6.01678E+013 
10950 5.99632E+013 
11000 5.97582E+013 
11050 5.95529E+013 
11100 5.93473E+013 
11150 5.91414E+013 
11200 5.89353E+013 
11250 5.8729E+013 
11300 5.85224E+013 
11350 5.83156E+013 
11400 5.81087E+013 
11450 5.79015E+013 
11500 5.76942E+013 
11550 5.74868E+013 
11600 5.72792E+013 
11650 5.70715E+013 
11700 5.68637E+013 
11750 5.66558E+013 
11800 5.64479E+013 
11850 5.62398E+013 
11900 5.60317E+013 
11950 5.58236E+013 
12000 5.56155E+013 
12050 5.54073E+013 
12100 5.51991E+013 
12150 5.4991E+013 
12200 5.47828E+013 
12250 5.45748E+013 
12300 5.43667E+013 
12350 5.41587E+013 
12400 5.39508E+013 
12450 5.3743E+013 
12500 5.35352E+013 
12550 5.33276E+013 
12600 5.312E+013 
12650 5.29126E+013 
12700 5.27053E+013 
12750 5.24981E+013 
12800 5.22912E+013 
12850 5.20843E+013 
12900 5.18777E+013 
12950 5.16712E+013 
13000 5.14649E+013 
13050 5.12588E+013 
13100 5.10529E+013 
13150 5.08472E+013 
13200 5.06418E+013 
13250 5.04365E+013 
13300 5.02316E+013 
13350 5.00268E+013 
13400 4.98224E+013 
13450 4.96181E+013 
13500 4.94142E+013 
13550 4.92105E+013 
13600 4.90072E+013 
13650 4.88041E+013 
13700 4.86013E+013 
13750 4.83989E+013 
13800 4.81967E+013 
13850 4.79949E+013 
13900 4.77934E+013 
13950 4.75922E+013 
14000 4.73914E+013 
14050 4.71909E+013 
14100 4.69908E+013 
14150 4.6791E+013 
14200 4.65916E+013 
14250 4.63926E+013 
14300 4.6194E+013 
14350 4.59957E+013 
14400 4.57978E+013 
14450 4.56004E+013 
14500 4.54033E+013 
14550 4.52066E+013 
14600 4.50104E+013 
14650 4.48145E+013 
14700 4.46191E+013 
14750 4.44241E+013 
14800 4.42295E+013 
14850 4.40354E+013 
14900 4.38417E+013 
14950 4.36484E+013 
15000 4.34556E+013 
15050 4.32632E+013 
15100 4.30713E+013 
15150 4.28799E+013 
15200 4.26889E+013 
15250 4.24984E+013 
15300 4.23083E+013 
15350 4.21188E+013 
15400 4.19297E+013 
15450 4.17411E+013 
15500 4.15529E+013 
15550 4.13653E+013 
15600 4.11781E+013 
15650 4.09915E+013 
15700 4.08054E+013 
15750 4.06197E+013 
15800 4.04346E+013 
15850 4.02499E+013 
15900 4.00658E+013 
15950 3.98822E+013 
16000 3.96991E+013 
16050 3.95165E+013 
16100 3.93344E+013 
16150 3.91529E+013 
16200 3.89719E+013 
16250 3.87914E+013 
16300 3.86114E+013 
16350 3.8432E+013 
16400 3.82531E+013 
16450 3.80748E+013 
16500 3.78969E+013 
16550 3.77197E+013 
16600 3.75429E+013 
16650 3.73667E+013 
16700 3.71911E+013 
16750 3.7016E+013 
16800 3.68414E+013 
16850 3.66674E+013 
16900 3.6494E+013 
16950 3.63211E+013 
17000 3.61488E+013 
17050 3.5977E+013 
17100 3.58058E+013 
17150 3.56351E+013 
17200 3.5465E+013 
17250 3.52955E+013 
17300 3.51265E+013 
17350 3.49581E+013 
17400 3.47903E+013 
17450 3.4623E+013 
17500 3.44562E+013 
17550 3.42901E+013 
17600 3.41245E+013 
17650 3.39595E+013 
17700 3.37951E+013 
17750 3.36312E+013 
17800 3.34679E+013 
17850 3.33052E+013 
17900 3.3143E+013 
17950 3.29814E+013 
18000 3.28204E+013 
18050 3.266E+013 
18100 3.25001E+013 
18150 3.23409E+013 
18200 3.21822E+013 
18250 3.2024E+013 
18300 3.18665E+013 
18350 3.17095E+013 
18400 3.15531E+013 
18450 3.13972E+013 
18500 3.1242E+013 
18550 3.10873E+013 
18600 3.09332E+013 
18650 3.07797E+013 
18700 3.06267E+013 
18750 3.04744E+013 
18800 3.03226E+013 
18850 3.01714E+013 
18900 3.00207E+013 
18950 2.98706E+013 
19000 2.97212E+013 
19050 2.95722E+013 
19100 2.94239E+013 
19150 2.92761E+013 
19200 2.91289E+013 
19250 2.89823E+013 
19300 2.88363E+013 
19350 2.86908E+013 
19400 2.85459E+013 
19450 2.84016E+013 
19500 2.82578E+013 
19550 2.81147E+013 
19600 2.79721E+013 
19650 2.783E+013 
19700 2.76885E+013 
19750 2.75476E+013 
19800 2.74073E+013 
19850 2.72675E+013 
19900 2.71284E+013 
19950 2.69897E+013 
20000 2.68517E+013 
20050 2.67142E+013 
20100 2.65772E+013 
20150 2.64409E+013 
20200 2.63051E+013 
20250 2.61698E+013 
20300 2.60351E+013 
20350 2.5901E+013 
20400 2.57675E+013 
20450 2.56344E+013 
20500 2.5502E+013 
20550 2.53701E+013 
20600 2.52388E+013 
20650 2.5108E+013 
20700 2.49778E+013 
20750 2.48481E+013 
20800 2.4719E+013 
20850 2.45904E+013 
20900 2.44624E+013 
20950 2.43349E+013 
21000 2.4208E+013 
21050 2.40816E+013 
21100 2.39558E+013 
21150 2.38305E+013 
21200 2.37057E+013 
21250 2.35815E+013 
21300 2.34579E+013 
21350 2.33348E+013 
21400 2.32122E+013 
21450 2.30901E+013 
21500 2.29686E+013 
21550 2.28476E+013 
21600 2.27272E+013 
21650 2.26073E+013 
21700 2.24879E+013 
21750 2.2369E+013 
21800 2.22507E+013 
21850 2.21329E+013 
21900 2.20157E+013 
21950 2.18989E+013 
22000 2.17827E+013 
22050 2.1667E+013 
22100 2.15518E+013 
22150 2.14372E+013 
22200 2.1323E+013 
22250 2.12094E+013 
22300 2.10963E+013 
22350 2.09837E+013 
22400 2.08716E+013 
22450 2.07601E+013 
22500 2.0649E+013 
22550 2.05384E+013 
22600 2.04284E+013 
22650 2.03189E+013 
22700 2.02098E+013 
22750 2.01013E+013 
22800 1.99933E+013 
22850 1.98857E+013 
22900 1.97787E+013 
22950 1.96721E+013 
23000 1.95661E+013 
23050 1.94605E+013 
23100 1.93555E+013 
23150 1.92509E+013 
23200 1.91468E+013 
23250 1.90432E+013 
23300 1.89401E+013 
23350 1.88375E+013 
23400 1.87354E+013 
23450 1.86337E+013 
23500 1.85326E+013 
23550 1.84319E+013 
23600 1.83317E+013 
23650 1.82319E+013 
23700 1.81326E+013 
23750 1.80338E+013 
23800 1.79355E+013 
23850 1.78376E+013 
23900 1.77403E+013 
23950 1.76433E+013 
24000 1.75469E+013 
24050 1.74509E+013 
24100 1.73554E+013 
24150 1.72603E+013 
24200 1.71657E+013 
24250 1.70715E+013 
24300 1.69778E+013 
24350 1.68846E+013 
24400 1.67918E+013 
24450 1.66994E+013 
24500 1.66075E+013 
24550 1.65161E+013 
24600 1.64251E+013 
24650 1.63345E+013 
24700 1.62444E+013 
24750 1.61547E+013 
24800 1.60655E+013 
24850 1.59767E+013 
24900 1.58883E+013 
24950 1.58004E+013 
25000 1.57129E+013 
25050 1.56258E+013 
25100 1.55392E+013 
25150 1.5453E+013 
25200 1.53672E+013 
25250 1.52818E+013 
25300 1.51969E+013 
25350 1.51124E+013 
25400 1.50283E+013 
25450 1.49446E+013 
25500 1.48614E+013 
25550 1.47786E+013 
25600 1.46961E+013 
25650 1.46141E+013 
25700 1.45325E+013 
25750 1.44513E+013 
25800 1.43705E+013 
25850 1.42902E+013 
25900 1.42102E+013 
25950 1.41306E+013 
26000 1.40515E+013 
26050 1.39727E+013 
26100 1.38943E+013 
26150 1.38163E+013 
26200 1.37388E+013 
26250 1.36616E+013 
26300 1.35848E+013 
26350 1.35084E+013 
26400 1.34324E+013 
26450 1.33567E+013 
26500 1.32815E+013 
26550 1.32066E+013 
26600 1.31322E+013 
26650 1.30581E+013 
26700 1.29844E+013 
26750 1.2911E+013 
26800 1.28381E+013 
26850 1.27655E+013 
26900 1.26933E+013 
26950 1.26214E+013 
27000 1.25499E+013 
27050 1.24788E+013 
27100 1.24081E+013 
27150 1.23377E+013 
27200 1.22677E+013 
27250 1.21981E+013 
27300 1.21288E+013 
27350 1.20599E+013 
27400 1.19913E+013 
27450 1.19231E+013 
27500 1.18552E+013 
27550 1.17877E+013 
27600 1.17206E+013 
27650 1.16538E+013 
27700 1.15873E+013 
27750 1.15212E+013 
27800 1.14554E+013 
27850 1.139E+013 
27900 1.1325E+013 
27950 1.12602E+013 
28000 1.11958E+013 
28050 1.11318E+013 
28100 1.10681E+013 
28150 1.10047E+013 
28200 1.09416E+013 
28250 1.08789E+013 
28300 1.08165E+013 
28350 1.07545E+013 
28400 1.06927E+013 
28450 1.06313E+013 
28500 1.05703E+013 
28550 1.05095E+013 
28600 1.04491E+013 
28650 1.0389E+013 
28700 1.03292E+013 
28750 1.02697E+013 
28800 1.02105E+013 
28850 1.01517E+013 
28900 1.00932E+013 
28950 1.00349E+013 
29000 9.97703E+012 
29050 9.91943E+012 
29100 9.86214E+012 
29150 9.80515E+012 
29200 9.74847E+012 
29250 9.6921E+012 
29300 9.63602E+012 
29350 9.58025E+012 
29400 9.52477E+012 
29450 9.4696E+012 
29500 9.41472E+012 
29550 9.36014E+012 
29600 9.30585E+012 
29650 9.25185E+012 
29700 9.19814E+012 
29750 9.14473E+012 
29800 9.0916E+012 
29850 9.03876E+012 
29900 8.9862E+012 
29950 8.93393E+012 
30000 8.88195E+012 
30050 8.83024E+012 
30100 8.77881E+012 
30150 8.72767E+012 
30200 8.6768E+012 
30250 8.62621E+012 
30300 8.57589E+012 
30350 8.52585E+012 
30400 8.47608E+012 
30450 8.42658E+012 
30500 8.37735E+012 
30550 8.32839E+012 
30600 8.2797E+012 
30650 8.23127E+012 
30700 8.18311E+012 
30750 8.13521E+012 
30800 8.08757E+012 
30850 8.0402E+012 
30900 7.99308E+012 
30950 7.94622E+012 
31000 7.89962E+012 
31050 7.85328E+012 
31100 7.80719E+012 
31150 7.76136E+012 
31200 7.71577E+012 
31250 7.67044E+012 
31300 7.62536E+012 
31350 7.58053E+012 
31400 7.53594E+012 
31450 7.4916E+012 
31500 7.4475E+012 
31550 7.40365E+012 
31600 7.36004E+012 
31650 7.31668E+012 
31700 7.27355E+012 
31750 7.23066E+012 
31800 7.18801E+012 
31850 7.1456E+012 
31900 7.10342E+012 
31950 7.06148E+012 
32000 7.01976E+012 
32050 6.97829E+012 
32100 6.93704E+012 
32150 6.89602E+012 
32200 6.85523E+012 
32250 6.81467E+012 
32300 6.77433E+012 
32350 6.73422E+012 
32400 6.69433E+012 
32450 6.65467E+012 
32500 6.61523E+012 
32550 6.57601E+012 
32600 6.537E+012 
32650 6.49822E+012 
32700 6.45965E+012 
32750 6.4213E+012 
32800 6.38317E+012 
32850 6.34525E+012 
32900 6.30754E+012 
32950 6.27004E+012 
33000 6.23276E+012 
33050 6.19568E+012 
33100 6.15882E+012 
33150 6.12216E+012 
33200 6.0857E+012 
33250 6.04946E+012 
33300 6.01342E+012 
33350 5.97758E+012 
33400 5.94194E+012 
33450 5.9065E+012 
33500 5.87127E+012 
33550 5.83623E+012 
33600 5.80139E+012 
33650 5.76675E+012 
33700 5.73231E+012 
33750 5.69806E+012 
33800 5.664E+012 
33850 5.63014E+012 
33900 5.59647E+012 
33950 5.56299E+012 
34000 5.5297E+012 
34050 5.4966E+012 
34100 5.46369E+012 
34150 5.43097E+012 
34200 5.39843E+012 
34250 5.36608E+012 
34300 5.33391E+012 
34350 5.30192E+012 
34400 5.27012E+012 
34450 5.2385E+012 
34500 5.20706E+012 
34550 5.1758E+012 
34600 5.14472E+012 
34650 5.11381E+012 
34700 5.08309E+012 
34750 5.05253E+012 
34800 5.02216E+012 
34850 4.99195E+012 
34900 4.96192E+012 
34950 4.93207E+012 
35000 4.90238E+012 
35050 4.87286E+012 
35100 4.84352E+012 
35150 4.81434E+012 
35200 4.78533E+012 
35250 4.75648E+012 
35300 4.7278E+012 
35350 4.69929E+012 
35400 4.67094E+012 
35450 4.64276E+012 
35500 4.61473E+012 
35550 4.58687E+012 
35600 4.55917E+012 
35650 4.53163E+012 
35700 4.50425E+012 
35750 4.47702E+012 
35800 4.44996E+012 
35850 4.42305E+012 
35900 4.39629E+012 
35950 4.36969E+012 
36000 4.34324E+012 
36050 4.31695E+012 
36100 4.29081E+012 
36150 4.26482E+012 
36200 4.23898E+012 
36250 4.21329E+012 
36300 4.18775E+012 
36350 4.16236E+012 
36400 4.13711E+012 
36450 4.11201E+012 
36500 4.08706E+012 
36550 4.06225E+012 
36600 4.03759E+012 
36650 4.01307E+012 
36700 3.9887E+012 
36750 3.96446E+012 
36800 3.94037E+012 
36850 3.91641E+012 
36900 3.8926E+012 
36950 3.86893E+012 
37000 3.84539E+012 
37050 3.82199E+012 
37100 3.79873E+012 
37150 3.7756E+012 
37200 3.75261E+012 
37250 3.72975E+012 
37300 3.70702E+012 
37350 3.68443E+012 
37400 3.66197E+012 
37450 3.63965E+012 
37500 3.61745E+012 
37550 3.59538E+012 
37600 3.57345E+012 
37650 3.55164E+012 
37700 3.52996E+012 
37750 3.5084E+012 
37800 3.48698E+012 
37850 3.46568E+012 
37900 3.4445E+012 
37950 3.42345E+012 
38000 3.40252E+012 
38050 3.38172E+012 
38100 3.36103E+012 
38150 3.34047E+012 
38200 3.32003E+012 
38250 3.29971E+012 
38300 3.27951E+012 
38350 3.25943E+012 
38400 3.23947E+012 
38450 3.21962E+012 
38500 3.1999E+012 
38550 3.18028E+012 
38600 3.16079E+012 
38650 3.14141E+012 
38700 3.12214E+012 
38750 3.10299E+012 
38800 3.08395E+012 
38850 3.06503E+012 
38900 3.04621E+012 
38950 3.02751E+012 
39000 3.00892E+012 
39050 2.99043E+012 
39100 2.97206E+012 
39150 2.9538E+012 
39200 2.93564E+012 
39250 2.91759E+012 
39300 2.89965E+012 
39350 2.88182E+012 
39400 2.86409E+012 
39450 2.84647E+012 
39500 2.82895E+012 
39550 2.81153E+012 
39600 2.79422E+012 
39650 2.77701E+012 
39700 2.75991E+012 
39750 2.7429E+012 
39800 2.726E+012 
39850 2.7092E+012 
39900 2.69249E+012 
39950 2.67589E+012 
40000 2.65939E+012 
40050 2.64298E+012 
40100 2.62667E+012 
40150 2.61046E+012 
40200 2.59435E+012 
40250 2.57833E+012 
40300 2.56241E+012 
40350 2.54658E+012 
40400 2.53085E+012 
40450 2.51521E+012 
40500 2.49967E+012 
40550 2.48421E+012 
40600 2.46885E+012 
40650 2.45359E+012 
40700 2.43841E+012 
40750 2.42332E+012 
40800 2.40833E+012 
40850 2.39342E+012 
40900 2.37861E+012 
40950 2.36388E+012 
41000 2.34924E+012 
41050 2.33469E+012 
41100 2.32023E+012 
41150 2.30585E+012 
41200 2.29156E+012 
41250 2.27735E+012 
41300 2.26323E+012 
41350 2.2492E+012 
41400 2.23525E+012 
41450 2.22138E+012 
41500 2.2076E+012 
41550 2.1939E+012 
41600 2.18028E+012 
41650 2.16674E+012 
41700 2.15329E+012 
41750 2.13991E+012 
41800 2.12662E+012 
41850 2.11341E+012 
41900 2.10027E+012 
41950 2.08722E+012 
42000 2.07424E+012 
42050 2.06134E+012 
42100 2.04852E+012 
42150 2.03578E+012 
42200 2.02312E+012 
42250 2.01053E+012 
42300 1.99802E+012 
42350 1.98558E+012 
42400 1.97322E+012 
42450 1.96093E+012 
42500 1.94872E+012 
42550 1.93658E+012 
42600 1.92451E+012 
42650 1.91252E+012 
42700 1.9006E+012 
42750 1.88875E+012 
42800 1.87697E+012 
42850 1.86527E+012 
42900 1.85363E+012 
42950 1.84207E+012 
43000 1.83058E+012 
43050 1.81915E+012 
43100 1.8078E+012 
43150 1.79651E+012 
43200 1.7853E+012 
43250 1.77415E+012 
43300 1.76306E+012 
43350 1.75205E+012 
43400 1.7411E+012 
43450 1.73022E+012 
43500 1.71941E+012 
43550 1.70866E+012 
43600 1.69798E+012 
43650 1.68736E+012 
43700 1.6768E+012 
43750 1.66631E+012 
43800 1.65589E+012 
43850 1.64552E+012 
43900 1.63523E+012 
43950 1.62499E+012 
44000 1.61482E+012 
44050 1.6047E+012 
44100 1.59465E+012 
44150 1.58466E+012 
44200 1.57474E+012 
44250 1.56487E+012 
44300 1.55506E+012 
44350 1.54531E+012 
44400 1.53562E+012 
44450 1.52599E+012 
44500 1.51642E+012 
44550 1.50691E+012 
44600 1.49746E+012 
44650 1.48806E+012 
44700 1.47872E+012 
44750 1.46944E+012 
44800 1.46022E+012 
44850 1.45105E+012 
44900 1.44194E+012 
44950 1.43288E+012 
45000 1.42388E+012 
45050 1.41493E+012 
45100 1.40604E+012 
45150 1.39721E+012 
45200 1.38842E+012 
45250 1.3797E+012 
45300 1.37102E+012 
45350 1.3624E+012 
45400 1.35383E+012 
45450 1.34531E+012 
45500 1.33685E+012 
45550 1.32844E+012 
45600 1.32008E+012 
45650 1.31177E+012 
45700 1.30351E+012 
45750 1.2953E+012 
45800 1.28714E+012 
45850 1.27904E+012 
45900 1.27098E+012 
45950 1.26297E+012 
46000 1.25501E+012 
46050 1.2471E+012 
46100 1.23924E+012 
46150 1.23143E+012 
46200 1.22367E+012 
46250 1.21595E+012 
46300 1.20828E+012 
46350 1.20066E+012 
46400 1.19308E+012 
46450 1.18556E+012 
46500 1.17807E+012 
46550 1.17064E+012 
46600 1.16325E+012 
46650 1.1559E+012 
46700 1.14861E+012 
46750 1.14135E+012 
46800 1.13414E+012 
46850 1.12698E+012 
46900 1.11986E+012 
46950 1.11278E+012 
47000 1.10575E+012 
47050 1.09876E+012 
47100 1.09181E+012 
47150 1.08491E+012 
47200 1.07805E+012 
47250 1.07123E+012 
47300 1.06445E+012 
47350 1.05772E+012 
47400 1.05103E+012 
47450 1.04438E+012 
47500 1.03776E+012 
47550 1.0312E+012 
47600 1.02467E+012 
47650 1.01818E+012 
47700 1.01173E+012 
47750 1.00532E+012 
47800 9.98956E+011 
47850 9.92627E+011 
47900 9.86338E+011 
47950 9.80087E+011 
48000 9.73875E+011 
48050 9.67702E+011 
48100 9.61567E+011 
48150 9.5547E+011 
48200 9.49411E+011 
48250 9.4339E+011 
48300 9.37406E+011 
48350 9.31459E+011 
48400 9.25548E+011 
48450 9.19675E+011 
48500 9.13838E+011 
48550 9.08038E+011 
48600 9.02273E+011 
48650 8.96544E+011 
48700 8.90851E+011 
48750 8.85194E+011 
48800 8.79571E+011 
48850 8.73984E+011 
48900 8.68431E+011 
48950 8.62913E+011 
49000 8.57429E+011 
49050 8.51979E+011 
49100 8.46563E+011 
49150 8.41181E+011 
49200 8.35832E+011 
49250 8.30517E+011 
49300 8.25235E+011 
49350 8.19986E+011 
49400 8.14769E+011 
49450 8.09585E+011 
49500 8.04433E+011 
49550 7.99314E+011 
49600 7.94226E+011 
49650 7.8917E+011 
49700 7.84146E+011 
49750 7.79153E+011 
49800 7.74191E+011 
49850 7.6926E+011 
49900 7.6436E+011 
49950 7.59491E+011 
50000 7.54652E+011 
50050 7.49843E+011 
50100 7.45064E+011 
50150 7.40315E+011 
50200 7.35596E+011 
50250 7.30906E+011 
50300 7.26246E+011 
50350 7.21614E+011 
50400 7.17012E+011 
50450 7.12438E+011 
50500 7.07894E+011 
50550 7.03377E+011 
50600 6.98889E+011 
50650 6.94429E+011 
50700 6.89996E+011 
50750 6.85592E+011 
50800 6.81215E+011 
50850 6.76866E+011 
50900 6.72543E+011 
50950 6.68248E+011 
51000 6.6398E+011 
51050 6.59739E+011 
51100 6.55524E+011 
51150 6.51335E+011 
51200 6.47173E+011 
51250 6.43037E+011 
51300 6.38927E+011 
51350 6.34843E+011 
51400 6.30784E+011 
51450 6.26751E+011 
51500 6.22743E+011 
51550 6.1876E+011 
51600 6.14803E+011 
51650 6.1087E+011 
51700 6.06961E+011 
51750 6.03078E+011 
51800 5.99219E+011 
51850 5.95384E+011 
51900 5.91573E+011 
51950 5.87786E+011 
52000 5.84023E+011 
52050 5.80283E+011 
52100 5.76567E+011 
52150 5.72875E+011 
52200 5.69206E+011 
52250 5.65559E+011 
52300 5.61936E+011 
52350 5.58336E+011 
52400 5.54758E+011 
52450 5.51203E+011 
52500 5.4767E+011 
52550 5.44159E+011 
52600 5.4067E+011 
52650 5.37204E+011 
52700 5.33759E+011 
52750 5.30336E+011 
52800 5.26935E+011 
52850 5.23555E+011 
52900 5.20196E+011 
52950 5.16859E+011 
53000 5.13542E+011 
53050 5.10247E+011 
53100 5.06972E+011 
53150 5.03718E+011 
53200 5.00484E+011 
53250 4.97271E+011 
53300 4.94078E+011 
53350 4.90906E+011 
53400 4.87753E+011 
53450 4.8462E+011 
53500 4.81507E+011 
53550 4.78414E+011 
53600 4.7534E+011 
53650 4.72286E+011 
53700 4.69251E+011 
53750 4.66235E+011 
53800 4.63238E+011 
53850 4.6026E+011 
53900 4.57301E+011 
53950 4.54361E+011 
54000 4.51439E+011 
54050 4.48536E+011 
54100 4.45651E+011 
54150 4.42785E+011 
54200 4.39936E+011 
54250 4.37106E+011 
54300 4.34293E+011 
54350 4.31499E+011 
54400 4.28722E+011 
54450 4.25962E+011 
54500 4.2322E+011 
54550 4.20496E+011 
54600 4.17788E+011 
54650 4.15098E+011 
54700 4.12425E+011 
54750 4.09769E+011 
54800 4.0713E+011 
54850 4.04507E+011 
54900 4.01901E+011 
54950 3.99312E+011 
55000 3.96739E+011 
55050 3.94182E+011 
55100 3.91641E+011 
55150 3.89117E+011 
55200 3.86609E+011 
55250 3.84116E+011 
55300 3.8164E+011 
55350 3.79179E+011 
55400 3.76734E+011 
55450 3.74304E+011 
55500 3.7189E+011 
55550 3.69491E+011 
55600 3.67107E+011 
55650 3.64739E+011 
55700 3.62385E+011 
55750 3.60047E+011 
55800 3.57723E+011 
55850 3.55414E+011 
55900 3.5312E+011 
55950 3.5084E+011 
56000 3.48575E+011 
56050 3.46324E+011 
56100 3.44088E+011 
56150 3.41866E+011 
56200 3.39658E+011 
56250 3.37464E+011 
56300 3.35284E+011 
56350 3.33117E+011 
56400 3.30965E+011 
56450 3.28826E+011 
56500 3.26701E+011 
56550 3.2459E+011 
56600 3.22492E+011 
56650 3.20407E+011 
56700 3.18336E+011 
56750 3.16277E+011 
56800 3.14232E+011 
56850 3.122E+011 
56900 3.10181E+011 
56950 3.08175E+011 
57000 3.06182E+011 
57050 3.04201E+011 
57100 3.02233E+011 
57150 3.00277E+011 
57200 2.98334E+011 
57250 2.96403E+011 
57300 2.94485E+011 
57350 2.92579E+011 
57400 2.90685E+011 
57450 2.88803E+011 
57500 2.86933E+011 
57550 2.85075E+011 
57600 2.83229E+011 
57650 2.81395E+011 
57700 2.79573E+011 
57750 2.77762E+011 
57800 2.75962E+011 
57850 2.74174E+011 
57900 2.72398E+011 
57950 2.70633E+011 
58000 2.68879E+011 
58050 2.67137E+011 
58100 2.65405E+011 
58150 2.63685E+011 
58200 2.61975E+011 
58250 2.60277E+011 
58300 2.58589E+011 
58350 2.56913E+011 
58400 2.55247E+011 
58450 2.53591E+011 
58500 2.51946E+011 
58550 2.50312E+011 
58600 2.48688E+011 
58650 2.47075E+011 
58700 2.45472E+011 
58750 2.43879E+011 
58800 2.42296E+011 
58850 2.40724E+011 
58900 2.39161E+011 
58950 2.37609E+011 
59000 2.36067E+011 
59050 2.34534E+011 
59100 2.33011E+011 
59150 2.31498E+011 
59200 2.29995E+011 
59250 2.28501E+011 
59300 2.27017E+011 
59350 2.25543E+011 
59400 2.24077E+011 
59450 2.22622E+011 
59500 2.21175E+011 
59550 2.19738E+011 
59600 2.1831E+011 
59650 2.16892E+011 
59700 2.15482E+011 
59750 2.14081E+011 
59800 2.1269E+011 
59850 2.11307E+011 
59900 2.09933E+011 
59950 2.08568E+011 
60000 2.07212E+011 
60050 2.05865E+011 
60100 2.04526E+011 
60150 2.03195E+011 
60200 2.01874E+011 
60250 2.0056E+011 
60300 1.99256E+011 
60350 1.97959E+011 
60400 1.96671E+011 
60450 1.95391E+011 
60500 1.9412E+011 
60550 1.92856E+011 
60600 1.91601E+011 
60650 1.90354E+011 
60700 1.89115E+011 
60750 1.87884E+011 
60800 1.8666E+011 
60850 1.85445E+011 
60900 1.84237E+011 
60950 1.83037E+011 
61000 1.81845E+011 
61050 1.80661E+011 
61100 1.79484E+011 
61150 1.78315E+011 
61200 1.77153E+011 
61250 1.75999E+011 
61300 1.74852E+011 
61350 1.73713E+011 
61400 1.7258E+011 
61450 1.71456E+011 
61500 1.70338E+011 
61550 1.69228E+011 
61600 1.68124E+011 
61650 1.67028E+011 
61700 1.65939E+011 
61750 1.64857E+011 
61800 1.63782E+011 
61850 1.62714E+011 
61900 1.61653E+011 
61950 1.60599E+011 
62000 1.59551E+011 
62050 1.5851E+011 
62100 1.57476E+011 
62150 1.56448E+011 
62200 1.55428E+011 
62250 1.54413E+011 
62300 1.53406E+011 
62350 1.52404E+011 
62400 1.5141E+011 
62450 1.50421E+011 
62500 1.49439E+011 
62550 1.48464E+011 
62600 1.47494E+011 
62650 1.46531E+011 
62700 1.45574E+011 
62750 1.44624E+011 
62800 1.43679E+011 
62850 1.42741E+011 
62900 1.41809E+011 
62950 1.40882E+011 
63000 1.39962E+011 
63050 1.39047E+011 
63100 1.38139E+011 
63150 1.37236E+011 
63200 1.36339E+011 
63250 1.35449E+011 
63300 1.34563E+011 
63350 1.33684E+011 
63400 1.3281E+011 
63450 1.31942E+011 
63500 1.31079E+011 
63550 1.30222E+011 
63600 1.29371E+011 
63650 1.28525E+011 
63700 1.27684E+011 
63750 1.26849E+011 
63800 1.2602E+011 
63850 1.25195E+011 
63900 1.24376E+011 
63950 1.23563E+011 
64000 1.22754E+011 
64050 1.21951E+011 
64100 1.21153E+011 
64150 1.2036E+011 
64200 1.19573E+011 
64250 1.1879E+011 
64300 1.18013E+011 
64350 1.1724E+011 
64400 1.16473E+011 
64450 1.1571E+011 
64500 1.14953E+011 
64550 1.142E+011 
64600 1.13452E+011 
64650 1.1271E+011 
64700 1.11972E+011 
64750 1.11238E+011 
64800 1.1051E+011 
64850 1.09786E+011 
64900 1.09067E+011 
64950 1.08352E+011 
65000 1.07642E+011 
65050 1.06937E+011 
65100 1.06236E+011 
65150 1.0554E+011 
65200 1.04849E+011 
65250 1.04162E+011 
65300 1.03479E+011 
65350 1.02801E+011 
65400 1.02127E+011 
65450 1.01457E+011 
65500 1.00792E+011 
65550 1.00131E+011 
65600 9.94749E+010 
65650 9.88226E+010 
65700 9.81746E+010 
65750 9.75308E+010 
65800 9.68911E+010 
65850 9.62556E+010 
65900 9.56243E+010 
65950 9.4997E+010 
66000 9.43738E+010 
66050 9.37547E+010 
66100 9.31396E+010 
66150 9.25285E+010 
66200 9.19213E+010 
66250 9.13181E+010 
66300 9.07188E+010 
66350 9.01234E+010 
66400 8.95319E+010 
66450 8.89442E+010 
66500 8.83604E+010 
66550 8.77803E+010 
66600 8.7204E+010 
66650 8.66315E+010 
66700 8.60627E+010 
66750 8.54976E+010 
66800 8.49361E+010 
66850 8.43783E+010 
66900 8.38241E+010 
66950 8.32736E+010 
67000 8.27266E+010 
67050 8.21832E+010 
67100 8.16433E+010 
67150 8.11069E+010 
67200 8.0574E+010 
67250 8.00446E+010 
67300 7.95186E+010 
67350 7.89961E+010 
67400 7.8477E+010 
67450 7.79612E+010 
67500 7.74488E+010 
67550 7.69397E+010 
67600 7.64339E+010 
67650 7.59315E+010 
67700 7.54323E+010 
67750 7.49364E+010 
67800 7.44436E+010 
67850 7.39541E+010 
67900 7.34678E+010 
67950 7.29847E+010 
68000 7.25047E+010 
68050 7.20278E+010 
68100 7.15541E+010 
68150 7.10834E+010 
68200 7.06158E+010 
68250 7.01512E+010 
68300 6.96897E+010 
68350 6.92312E+010 
68400 6.87757E+010 
68450 6.83231E+010 
68500 6.78735E+010 
68550 6.74268E+010 
68600 6.69831E+010 
68650 6.65422E+010 
68700 6.61042E+010 
68750 6.56691E+010 
68800 6.52368E+010 
68850 6.48073E+010 
68900 6.43806E+010 
68950 6.39567E+010 
69000 6.35356E+010 
69050 6.31172E+010 
69100 6.27016E+010 
69150 6.22886E+010 
69200 6.18784E+010 
69250 6.14708E+010 
69300 6.10659E+010 
69350 6.06637E+010 
69400 6.0264E+010 
69450 5.9867E+010 
69500 5.94726E+010 
69550 5.90807E+010 
69600 5.86914E+010 
69650 5.83047E+010 
69700 5.79205E+010 
69750 5.75388E+010 
69800 5.71595E+010 
69850 5.67828E+010 
69900 5.64085E+010 
69950 5.60367E+010 
70000 5.56673E+010 
70050 5.53003E+010 
70100 5.49357E+010 
70150 5.45735E+010 
70200 5.42137E+010 
70250 5.38562E+010 
70300 5.3501E+010 
70350 5.31482E+010 
70400 5.27977E+010 
70450 5.24495E+010 
70500 5.21035E+010 
70550 5.17598E+010 
70600 5.14184E+010 
70650 5.10792E+010 
70700 5.07422E+010 
70750 5.04074E+010 
70800 5.00748E+010 
70850 4.97444E+010 
70900 4.94161E+010 
70950 4.909E+010 
71000 4.87661E+010 
71050 4.84442E+010 
71100 4.81245E+010 
71150 4.78068E+010 
71200 4.74912E+010 
71250 4.71777E+010 
71300 4.68663E+010 
71350 4.65569E+010 
71400 4.62495E+010 
71450 4.59441E+010 
71500 4.56407E+010 
71550 4.53393E+010 
71600 4.50399E+010 
71650 4.47425E+010 
71700 4.4447E+010 
71750 4.41534E+010 
71800 4.38618E+010 
71850 4.3572E+010 
71900 4.32842E+010 
71950 4.29982E+010 
72000 4.27142E+010 
72050 4.2432E+010 
72100 4.21516E+010 
72150 4.18731E+010 
72200 4.15964E+010 
72250 4.13215E+010 
72300 4.10484E+010 
72350 4.07771E+010 
72400 4.05076E+010 
72450 4.02398E+010 
72500 3.99738E+010 
72550 3.97096E+010 
72600 3.94471E+010 
72650 3.91863E+010 
72700 3.89272E+010 
72750 3.86698E+010 
72800 3.84141E+010 
72850 3.81601E+010 
72900 3.79078E+010 
72950 3.76571E+010 
73000 3.7408E+010 
73050 3.71606E+010 
73100 3.69148E+010 
73150 3.66706E+010 
73200 3.64281E+010 
73250 3.61871E+010 
73300 3.59477E+010 
73350 3.57099E+010 
73400 3.54736E+010 
73450 3.52389E+010 
73500 3.50057E+010 
73550 3.47741E+010 
73600 3.45439E+010 
73650 3.43153E+010 
73700 3.40882E+010 
73750 3.38626E+010 
73800 3.36385E+010 
73850 3.34158E+010 
73900 3.31946E+010 
73950 3.29749E+010 
74000 3.27565E+010 
74050 3.25397E+010 
74100 3.23242E+010 
74150 3.21102E+010 
74200 3.18976E+010 
74250 3.16864E+010 
74300 3.14765E+010 
74350 3.12681E+010 
74400 3.1061E+010 
74450 3.08553E+010 
74500 3.06509E+010 
74550 3.04479E+010 
74600 3.02462E+010 
74650 3.00458E+010 
74700 2.98468E+010 
74750 2.9649E+010 
74800 2.94526E+010 
74850 2.92574E+010 
74900 2.90636E+010 
74950 2.8871E+010 
75000 2.86797E+010 
75050 2.84896E+010 
75100 2.83008E+010 
75150 2.81132E+010 
75200 2.79269E+010 
75250 2.77418E+010 
75300 2.75579E+010 
75350 2.73752E+010 
75400 2.71937E+010 
75450 2.70134E+010 
75500 2.68344E+010 
75550 2.66564E+010 
75600 2.64797E+010 
75650 2.63041E+010 
75700 2.61297E+010 
75750 2.59564E+010 
75800 2.57843E+010 
75850 2.56133E+010 
75900 2.54434E+010 
75950 2.52746E+010 
76000 2.5107E+010 
76050 2.49404E+010 
76100 2.4775E+010 
76150 2.46106E+010 
76200 2.44474E+010 
76250 2.42851E+010 
76300 2.4124E+010 
76350 2.3964E+010 
76400 2.38049E+010 
76450 2.3647E+010 
76500 2.34901E+010 
76550 2.33342E+010 
76600 2.31793E+010 
76650 2.30255E+010 
76700 2.28726E+010 
76750 2.27208E+010 
76800 2.257E+010 
76850 2.24202E+010 
76900 2.22713E+010 
76950 2.21235E+010 
77000 2.19766E+010 
77050 2.18307E+010 
77100 2.16857E+010 
77150 2.15417E+010 
77200 2.13987E+010 
77250 2.12566E+010 
77300 2.11154E+010 
77350 2.09752E+010 
77400 2.08359E+010 
77450 2.06975E+010 
77500 2.056E+010 
77550 2.04235E+010 
77600 2.02878E+010 
77650 2.0153E+010 
77700 2.00192E+010 
77750 1.98861E+010 
77800 1.9754E+010 
77850 1.96228E+010 
77900 1.94924E+010 
77950 1.93629E+010 
78000 1.92342E+010 
78050 1.91064E+010 
78100 1.89794E+010 
78150 1.88533E+010 
78200 1.8728E+010 
78250 1.86035E+010 
78300 1.84798E+010 
78350 1.8357E+010 
78400 1.8235E+010 
78450 1.81138E+010 
78500 1.79933E+010 
78550 1.78737E+010 
78600 1.77549E+010 
78650 1.76368E+010 
78700 1.75196E+010 
78750 1.74031E+010 
78800 1.72874E+010 
78850 1.71724E+010 
78900 1.70582E+010 
78950 1.69448E+010 
79000 1.68321E+010 
79050 1.67201E+010 
79100 1.66089E+010 
79150 1.64984E+010 
79200 1.63887E+010 
79250 1.62797E+010 
79300 1.61714E+010 
79350 1.60638E+010 
79400 1.59569E+010 
79450 1.58507E+010 
79500 1.57453E+010 
79550 1.56405E+010 
79600 1.55364E+010 
79650 1.54331E+010 
79700 1.53304E+010 
79750 1.52283E+010 
79800 1.5127E+010 
79850 1.50263E+010 
79900 1.49263E+010 
79950 1.48269E+010 
80000 1.47283E+010 
80050 1.46302E+010 
80100 1.45328E+010 
80150 1.44361E+010 
80200 1.434E+010 
80250 1.42445E+010 
80300 1.41497E+010 
80350 1.40554E+010 
80400 1.39619E+010 
80450 1.38689E+010 
80500 1.37765E+010 
80550 1.36848E+010 
80600 1.35937E+010 
80650 1.35031E+010 
80700 1.34132E+010 
80750 1.33239E+010 
80800 1.32351E+010 
80850 1.3147E+010 
80900 1.30594E+010 
80950 1.29724E+010 
81000 1.2886E+010 
81050 1.28001E+010 
81100 1.27149E+010 
81150 1.26301E+010 
81200 1.2546E+010 
81250 1.24624E+010 
81300 1.23794E+010 
81350 1.22969E+010 
81400 1.22149E+010 
81450 1.21335E+010 
81500 1.20527E+010 
81550 1.19723E+010 
81600 1.18925E+010 
81650 1.18133E+010 
81700 1.17345E+010 
81750 1.16563E+010 
81800 1.15786E+010 
81850 1.15014E+010 
81900 1.14248E+010 
81950 1.13486E+010 
82000 1.12729E+010 
82050 1.11978E+010 
82100 1.11231E+010 
82150 1.10489E+010 
82200 1.09753E+010 
82250 1.09021E+010 
82300 1.08294E+010 
82350 1.07572E+010 
82400 1.06854E+010 
82450 1.06142E+010 
82500 1.05434E+010 
82550 1.04731E+010 
82600 1.04032E+010 
82650 1.03338E+010 
82700 1.02649E+010 
82750 1.01964E+010 
82800 1.01284E+010 
82850 1.00608E+010 
82900 9.99369E+009 
82950 9.92702E+009 
83000 9.86078E+009 
83050 9.79499E+009 
83100 9.72963E+009 
83150 9.66471E+009 
83200 9.60022E+009 
83250 9.53615E+009 
83300 9.47251E+009 
83350 9.4093E+009 
83400 9.3465E+009 
83450 9.28412E+009 
83500 9.22215E+009 
83550 9.1606E+009 
83600 9.09945E+009 
83650 9.03871E+009 
83700 8.97837E+009 
83750 8.91843E+009 
83800 8.8589E+009 
83850 8.79975E+009 
83900 8.741E+009 
83950 8.68264E+009 
84000 8.62467E+009 
84050 8.56708E+009 
84100 8.50987E+009 
84150 8.45305E+009 
84200 8.3966E+009 
84250 8.34052E+009 
84300 8.28482E+009 
84350 8.22949E+009 
84400 8.17453E+009 
84450 8.11993E+009 
84500 8.06569E+009 
84550 8.01182E+009 
84600 7.9583E+009 
84650 7.90514E+009 
84700 7.85233E+009 
84750 7.79987E+009 
84800 7.74776E+009 
84850 7.696E+009 
84900 7.64458E+009 
84950 7.5935E+009 
85000 7.54277E+009 
85050 7.49237E+009 
85100 7.4423E+009 
85150 7.39257E+009 
85200 7.34317E+009 
85250 7.29409E+009 
85300 7.24534E+009 
85350 7.19692E+009 
85400 7.14882E+009 
85450 7.10104E+009 
85500 7.05358E+009 
85550 7.00643E+009 
85600 6.95959E+009 
85650 6.91307E+009 
85700 6.86686E+009 
85750 6.82095E+009 
85800 6.77535E+009 
85850 6.73005E+009 
85900 6.68505E+009 
85950 6.64036E+009 
86000 6.59596E+009 
86050 6.55185E+009 
86100 6.50804E+009 
86150 6.46452E+009 
86200 6.42129E+009 
86250 6.37835E+009 
86300 6.33569E+009 
86350 6.29332E+009 
86400 6.25123E+009 
86450 6.20942E+009 
86500 6.16788E+009 
86550 6.12663E+009 
86600 6.08565E+009 
86650 6.04494E+009 
86700 6.0045E+009 
86750 5.96433E+009 
86800 5.92443E+009 
86850 5.88479E+009 
86900 5.84542E+009 
86950 5.80631E+009 
87000 5.76746E+009 
87050 5.72887E+009 
87100 5.69054E+009 
87150 5.65246E+009 
87200 5.61463E+009 
87250 5.57706E+009 
87300 5.53974E+009 
87350 5.50266E+009 
87400 5.46584E+009 
87450 5.42925E+009 
87500 5.39291E+009 
87550 5.35682E+009 
87600 5.32096E+009 
87650 5.28534E+009 
87700 5.24996E+009 
87750 5.21482E+009 
87800 5.17991E+009 
87850 5.14523E+009 
87900 5.11079E+009 
87950 5.07657E+009 
88000 5.04258E+009 
88050 5.00882E+009 
88100 4.97528E+009 
88150 4.94196E+009 
88200 4.90887E+009 
88250 4.876E+009 
88300 4.84335E+009 
88350 4.81091E+009 
88400 4.77869E+009 
88450 4.74669E+009 
88500 4.7149E+009 
88550 4.68332E+009 
88600 4.65195E+009 
88650 4.62079E+009 
88700 4.58984E+009 
88750 4.5591E+009 
88800 4.52856E+009 
88850 4.49822E+009 
88900 4.46808E+009 
88950 4.43815E+009 
89000 4.40842E+009 
89050 4.37888E+009 
89100 4.34954E+009 
89150 4.3204E+009 
89200 4.29145E+009 
89250 4.2627E+009 
89300 4.23413E+009 
89350 4.20576E+009 
89400 4.17757E+009 
89450 4.14958E+009 
89500 4.12177E+009 
89550 4.09415E+009 
89600 4.06671E+009 
89650 4.03945E+009 
89700 4.01238E+009 
89750 3.98548E+009 
89800 3.95877E+009 
89850 3.93223E+009 
89900 3.90587E+009 
89950 3.87969E+009 
90000 3.85368E+009 
90050 3.82785E+009 
90100 3.80218E+009 
90150 3.77669E+009 
90200 3.75137E+009 
90250 3.72622E+009 
90300 3.70123E+009 
90350 3.67642E+009 
90400 3.65177E+009 
90450 3.62728E+009 
90500 3.60296E+009 
90550 3.57879E+009 
90600 3.55479E+009 
90650 3.53095E+009 
90700 3.50727E+009 
90750 3.48375E+009 
90800 3.46039E+009 
90850 3.43718E+009 
90900 3.41412E+009 
90950 3.39122E+009 
91000 3.36847E+009 
91050 3.34588E+009 
91100 3.32343E+009 
91150 3.30114E+009 
91200 3.27899E+009 
91250 3.25699E+009 
91300 3.23514E+009 
91350 3.21344E+009 
91400 3.19188E+009 
91450 3.17046E+009 
91500 3.14919E+009 
91550 3.12806E+009 
91600 3.10707E+009 
91650 3.08622E+009 
91700 3.06551E+009 
91750 3.04493E+009 
91800 3.0245E+009 
91850 3.0042E+009 
91900 2.98404E+009 
91950 2.96401E+009 
92000 2.94412E+009 
92050 2.92436E+009 
92100 2.90473E+009 
92150 2.88523E+009 
92200 2.86586E+009 
92250 2.84663E+009 
92300 2.82752E+009 
92350 2.80854E+009 
92400 2.78968E+009 
92450 2.77095E+009 
92500 2.75235E+009 
92550 2.73387E+009 
92600 2.71551E+009 
92650 2.69728E+009 
92700 2.67917E+009 
92750 2.66118E+009 
92800 2.64331E+009 
92850 2.62556E+009 
92900 2.60793E+009 
92950 2.59042E+009 
93000 2.57302E+009 
93050 2.55574E+009 
93100 2.53858E+009 
93150 2.52153E+009 
93200 2.50459E+009 
93250 2.48777E+009 
93300 2.47106E+009 
93350 2.45446E+009 
93400 2.43798E+009 
93450 2.4216E+009 
93500 2.40533E+009 
93550 2.38917E+009 
93600 2.37312E+009 
93650 2.35718E+009 
93700 2.34135E+009 
93750 2.32562E+009 
93800 2.30999E+009 
93850 2.29447E+009 
93900 2.27905E+009 
93950 2.26374E+009 
94000 2.24853E+009 
94050 2.23342E+009 
94100 2.21841E+009 
94150 2.2035E+009 
94200 2.1887E+009 
94250 2.17399E+009 
94300 2.15938E+009 
94350 2.14487E+009 
94400 2.13045E+009 
94450 2.11613E+009 
94500 2.10191E+009 
94550 2.08778E+009 
94600 2.07375E+009 
94650 2.05981E+009 
94700 2.04596E+009 
94750 2.03221E+009 
94800 2.01855E+009 
94850 2.00498E+009 
94900 1.9915E+009 
94950 1.97811E+009 
95000 1.96481E+009 
95050 1.9516E+009 
95100 1.93848E+009 
95150 1.92545E+009 
95200 1.9125E+009 
95250 1.89964E+009 
95300 1.88687E+009 
95350 1.87418E+009 
95400 1.86158E+009 
95450 1.84906E+009 
95500 1.83663E+009 
95550 1.82428E+009 
95600 1.81201E+009 
95650 1.79982E+009 
95700 1.78772E+009 
95750 1.77569E+009 
95800 1.76375E+009 
95850 1.75189E+009 
95900 1.7401E+009 
95950 1.7284E+009 
96000 1.71677E+009 
96050 1.70522E+009 
96100 1.69375E+009 
96150 1.68236E+009 
96200 1.67104E+009 
96250 1.6598E+009 
96300 1.64863E+009 
96350 1.63754E+009 
96400 1.62653E+009 
96450 1.61558E+009 
96500 1.60471E+009 
96550 1.59391E+009 
96600 1.58319E+009 
96650 1.57254E+009 
96700 1.56195E+009 
96750 1.55144E+009 
96800 1.541E+009 
96850 1.53063E+009 
96900 1.52033E+009 
96950 1.5101E+009 
97000 1.49994E+009 
97050 1.48984E+009 
97100 1.47982E+009 
97150 1.46986E+009 
97200 1.45996E+009 
97250 1.45014E+009 
97300 1.44038E+009 
97350 1.43068E+009 
97400 1.42105E+009 
97450 1.41149E+009 
97500 1.40198E+009 
97550 1.39255E+009 
97600 1.38317E+009 
97650 1.37386E+009 
97700 1.36461E+009 
97750 1.35542E+009 
97800 1.3463E+009 
97850 1.33723E+009 
97900 1.32823E+009 
97950 1.31928E+009 
98000 1.3104E+009 
98050 1.30158E+009 
98100 1.29281E+009 
98150 1.28411E+009 
98200 1.27546E+009 
98250 1.26687E+009 
98300 1.25834E+009 
98350 1.24987E+009 
98400 1.24145E+009 
98450 1.23309E+009 
98500 1.22478E+009 
98550 1.21653E+009 
98600 1.20834E+009 
98650 1.2002E+009 
98700 1.19212E+009 
98750 1.18409E+009 
98800 1.17611E+009 
98850 1.16819E+009 
98900 1.16032E+009 
98950 1.1525E+009 
99000 1.14474E+009 
99050 1.13703E+009 
99100 1.12937E+009 
99150 1.12176E+009 
99200 1.1142E+009 
99250 1.10669E+009 
99300 1.09924E+009 
99350 1.09183E+009 
99400 1.08447E+009 
99450 1.07717E+009 
99500 1.06991E+009 
99550 1.0627E+009 
99600 1.05554E+009 
99650 1.04843E+009 
99700 1.04136E+009 
99750 1.03434E+009 
99800 1.02737E+009 
99850 1.02045E+009 
99900 1.01357E+009 
99950 1.00674E+009 
100000 9.99954E+008 
