#F U:\Beamline I20\I20-2_EDE\Wigglers\xop\83mm-small-wiggler\EDE wiggler\1p3T-300mA-0p12x1p1mrad.dat
#C I20EDE 1.3T 300mA 0.12x1.1mrad
#S 1 File written by xplot on Tue Dec 07 17:59:19 2010
#N 2
#L    Energy [eV]  Flux [ph/s/0.1%bw]
50 7.2193E+012 
100 1.14524E+013 
150 1.49886E+013 
200 1.81286E+013 
250 2.09971E+013 
300 2.36612E+013 
350 2.61624E+013 
400 2.85283E+013 
450 3.07788E+013 
500 3.29288E+013 
550 3.49895E+013 
600 3.69702E+013 
650 3.88782E+013 
700 4.07195E+013 
750 4.24992E+013 
800 4.42218E+013 
850 4.58908E+013 
900 4.75097E+013 
950 4.90812E+013 
1000 5.06079E+013 
1050 5.20919E+013 
1100 5.35355E+013 
1150 5.49402E+013 
1200 5.63079E+013 
1250 5.76401E+013 
1300 5.8938E+013 
1350 6.02031E+013 
1400 6.14364E+013 
1450 6.2639E+013 
1500 6.3812E+013 
1550 6.49563E+013 
1600 6.60728E+013 
1650 6.71624E+013 
1700 6.82257E+013 
1750 6.92636E+013 
1800 7.02767E+013 
1850 7.12657E+013 
1900 7.22313E+013 
1950 7.31739E+013 
2000 7.40942E+013 
2050 7.49927E+013 
2100 7.58699E+013 
2150 7.67264E+013 
2200 7.75625E+013 
2250 7.83788E+013 
2300 7.91757E+013 
2350 7.99536E+013 
2400 8.07128E+013 
2450 8.14538E+013 
2500 8.2177E+013 
2550 8.28827E+013 
2600 8.35713E+013 
2650 8.4243E+013 
2700 8.48983E+013 
2750 8.55374E+013 
2800 8.61607E+013 
2850 8.67684E+013 
2900 8.73609E+013 
2950 8.79384E+013 
3000 8.85011E+013 
3050 8.90494E+013 
3100 8.95835E+013 
3150 9.01037E+013 
3200 9.06102E+013 
3250 9.11032E+013 
3300 9.1583E+013 
3350 9.20498E+013 
3400 9.25039E+013 
3450 9.29453E+013 
3500 9.33745E+013 
3550 9.37915E+013 
3600 9.41965E+013 
3650 9.45898E+013 
3700 9.49716E+013 
3750 9.5342E+013 
3800 9.57013E+013 
3850 9.60495E+013 
3900 9.6387E+013 
3950 9.67138E+013 
4000 9.70301E+013 
4050 9.73362E+013 
4100 9.76321E+013 
4150 9.7918E+013 
4200 9.81942E+013 
4250 9.84606E+013 
4300 9.87176E+013 
4350 9.89652E+013 
4400 9.92036E+013 
4450 9.94329E+013 
4500 9.96534E+013 
4550 9.9865E+013 
4600 1.00068E+014 
4650 1.00262E+014 
4700 1.00449E+014 
4750 1.00626E+014 
4800 1.00796E+014 
4850 1.00958E+014 
4900 1.01112E+014 
4950 1.01258E+014 
5000 1.01396E+014 
5050 1.01527E+014 
5100 1.01651E+014 
5150 1.01767E+014 
5200 1.01876E+014 
5250 1.01978E+014 
5300 1.02073E+014 
5350 1.02162E+014 
5400 1.02243E+014 
5450 1.02318E+014 
5500 1.02387E+014 
5550 1.02449E+014 
5600 1.02504E+014 
5650 1.02554E+014 
5700 1.02597E+014 
5750 1.02634E+014 
5800 1.02665E+014 
5850 1.02691E+014 
5900 1.02711E+014 
5950 1.02725E+014 
6000 1.02733E+014 
6050 1.02736E+014 
6100 1.02734E+014 
6150 1.02726E+014 
6200 1.02713E+014 
6250 1.02695E+014 
6300 1.02671E+014 
6350 1.02643E+014 
6400 1.0261E+014 
6450 1.02572E+014 
6500 1.02529E+014 
6550 1.02482E+014 
6600 1.0243E+014 
6650 1.02373E+014 
6700 1.02312E+014 
6750 1.02247E+014 
6800 1.02177E+014 
6850 1.02103E+014 
6900 1.02025E+014 
6950 1.01942E+014 
7000 1.01856E+014 
7050 1.01766E+014 
7100 1.01672E+014 
7150 1.01574E+014 
7200 1.01472E+014 
7250 1.01366E+014 
7300 1.01257E+014 
7350 1.01144E+014 
7400 1.01028E+014 
7450 1.00908E+014 
7500 1.00785E+014 
7550 1.00658E+014 
7600 1.00528E+014 
7650 1.00395E+014 
7700 1.00259E+014 
7750 1.00119E+014 
7800 9.99765E+013 
7850 9.98309E+013 
7900 9.96823E+013 
7950 9.95308E+013 
8000 9.93764E+013 
8050 9.92192E+013 
8100 9.90592E+013 
8150 9.88966E+013 
8200 9.87312E+013 
8250 9.85632E+013 
8300 9.83927E+013 
8350 9.82196E+013 
8400 9.80441E+013 
8450 9.78661E+013 
8500 9.76857E+013 
8550 9.7503E+013 
8600 9.7318E+013 
8650 9.71307E+013 
8700 9.69412E+013 
8750 9.67496E+013 
8800 9.65558E+013 
8850 9.63599E+013 
8900 9.6162E+013 
8950 9.59621E+013 
9000 9.57602E+013 
9050 9.55564E+013 
9100 9.53507E+013 
9150 9.51431E+013 
9200 9.49338E+013 
9250 9.47226E+013 
9300 9.45098E+013 
9350 9.42952E+013 
9400 9.4079E+013 
9450 9.38611E+013 
9500 9.36417E+013 
9550 9.34206E+013 
9600 9.31981E+013 
9650 9.29741E+013 
9700 9.27486E+013 
9750 9.25217E+013 
9800 9.22934E+013 
9850 9.20637E+013 
9900 9.18327E+013 
9950 9.16004E+013 
10000 9.13669E+013 
10050 9.11321E+013 
10100 9.08961E+013 
10150 9.06589E+013 
10200 9.04206E+013 
10250 9.01811E+013 
10300 8.99406E+013 
10350 8.9699E+013 
10400 8.94564E+013 
10450 8.92128E+013 
10500 8.89681E+013 
10550 8.87226E+013 
10600 8.84761E+013 
10650 8.82287E+013 
10700 8.79804E+013 
10750 8.77313E+013 
10800 8.74813E+013 
10850 8.72306E+013 
10900 8.69791E+013 
10950 8.67268E+013 
11000 8.64738E+013 
11050 8.62201E+013 
11100 8.59657E+013 
11150 8.57106E+013 
11200 8.5455E+013 
11250 8.51987E+013 
11300 8.49418E+013 
11350 8.46843E+013 
11400 8.44263E+013 
11450 8.41677E+013 
11500 8.39087E+013 
11550 8.36491E+013 
11600 8.33891E+013 
11650 8.31286E+013 
11700 8.28678E+013 
11750 8.26065E+013 
11800 8.23448E+013 
11850 8.20827E+013 
11900 8.18203E+013 
11950 8.15576E+013 
12000 8.12945E+013 
12050 8.10311E+013 
12100 8.07675E+013 
12150 8.05036E+013 
12200 8.02394E+013 
12250 7.9975E+013 
12300 7.97104E+013 
12350 7.94456E+013 
12400 7.91806E+013 
12450 7.89155E+013 
12500 7.86502E+013 
12550 7.83848E+013 
12600 7.81192E+013 
12650 7.78536E+013 
12700 7.75878E+013 
12750 7.7322E+013 
12800 7.70561E+013 
12850 7.67902E+013 
12900 7.65243E+013 
12950 7.62583E+013 
13000 7.59923E+013 
13050 7.57263E+013 
13100 7.54604E+013 
13150 7.51945E+013 
13200 7.49286E+013 
13250 7.46628E+013 
13300 7.43971E+013 
13350 7.41314E+013 
13400 7.38659E+013 
13450 7.36004E+013 
13500 7.33351E+013 
13550 7.30699E+013 
13600 7.28049E+013 
13650 7.254E+013 
13700 7.22752E+013 
13750 7.20107E+013 
13800 7.17463E+013 
13850 7.14822E+013 
13900 7.12182E+013 
13950 7.09545E+013 
14000 7.0691E+013 
14050 7.04277E+013 
14100 7.01646E+013 
14150 6.99019E+013 
14200 6.96394E+013 
14250 6.93771E+013 
14300 6.91152E+013 
14350 6.88535E+013 
14400 6.85922E+013 
14450 6.83311E+013 
14500 6.80704E+013 
14550 6.781E+013 
14600 6.755E+013 
14650 6.72903E+013 
14700 6.70309E+013 
14750 6.67719E+013 
14800 6.65133E+013 
14850 6.6255E+013 
14900 6.59972E+013 
14950 6.57397E+013 
15000 6.54826E+013 
15050 6.52259E+013 
15100 6.49697E+013 
15150 6.47138E+013 
15200 6.44584E+013 
15250 6.42034E+013 
15300 6.39489E+013 
15350 6.36948E+013 
15400 6.34411E+013 
15450 6.31879E+013 
15500 6.29352E+013 
15550 6.26829E+013 
15600 6.24311E+013 
15650 6.21798E+013 
15700 6.1929E+013 
15750 6.16786E+013 
15800 6.14288E+013 
15850 6.11795E+013 
15900 6.09307E+013 
15950 6.06824E+013 
16000 6.04346E+013 
16050 6.01873E+013 
16100 5.99406E+013 
16150 5.96943E+013 
16200 5.94487E+013 
16250 5.92035E+013 
16300 5.8959E+013 
16350 5.87149E+013 
16400 5.84714E+013 
16450 5.82285E+013 
16500 5.79862E+013 
16550 5.77444E+013 
16600 5.75032E+013 
16650 5.72625E+013 
16700 5.70225E+013 
16750 5.6783E+013 
16800 5.65441E+013 
16850 5.63058E+013 
16900 5.6068E+013 
16950 5.58309E+013 
17000 5.55944E+013 
17050 5.53585E+013 
17100 5.51231E+013 
17150 5.48884E+013 
17200 5.46543E+013 
17250 5.44209E+013 
17300 5.4188E+013 
17350 5.39558E+013 
17400 5.37241E+013 
17450 5.34931E+013 
17500 5.32628E+013 
17550 5.3033E+013 
17600 5.28039E+013 
17650 5.25754E+013 
17700 5.23476E+013 
17750 5.21204E+013 
17800 5.18939E+013 
17850 5.16679E+013 
17900 5.14427E+013 
17950 5.12181E+013 
18000 5.09941E+013 
18050 5.07708E+013 
18100 5.05481E+013 
18150 5.03261E+013 
18200 5.01048E+013 
18250 4.98841E+013 
18300 4.9664E+013 
18350 4.94447E+013 
18400 4.92259E+013 
18450 4.90079E+013 
18500 4.87905E+013 
18550 4.85738E+013 
18600 4.83578E+013 
18650 4.81424E+013 
18700 4.79277E+013 
18750 4.77137E+013 
18800 4.75003E+013 
18850 4.72876E+013 
18900 4.70756E+013 
18950 4.68642E+013 
19000 4.66536E+013 
19050 4.64436E+013 
19100 4.62343E+013 
19150 4.60256E+013 
19200 4.58177E+013 
19250 4.56104E+013 
19300 4.54038E+013 
19350 4.51979E+013 
19400 4.49927E+013 
19450 4.47882E+013 
19500 4.45843E+013 
19550 4.43811E+013 
19600 4.41786E+013 
19650 4.39768E+013 
19700 4.37757E+013 
19750 4.35752E+013 
19800 4.33755E+013 
19850 4.31764E+013 
19900 4.2978E+013 
19950 4.27803E+013 
20000 4.25833E+013 
20050 4.23869E+013 
20100 4.21913E+013 
20150 4.19963E+013 
20200 4.1802E+013 
20250 4.16084E+013 
20300 4.14155E+013 
20350 4.12232E+013 
20400 4.10317E+013 
20450 4.08408E+013 
20500 4.06506E+013 
20550 4.04611E+013 
20600 4.02723E+013 
20650 4.00842E+013 
20700 3.98967E+013 
20750 3.97099E+013 
20800 3.95238E+013 
20850 3.93384E+013 
20900 3.91537E+013 
20950 3.89697E+013 
21000 3.87863E+013 
21050 3.86036E+013 
21100 3.84216E+013 
21150 3.82402E+013 
21200 3.80596E+013 
21250 3.78796E+013 
21300 3.77003E+013 
21350 3.75216E+013 
21400 3.73437E+013 
21450 3.71664E+013 
21500 3.69898E+013 
21550 3.68138E+013 
21600 3.66385E+013 
21650 3.64639E+013 
21700 3.629E+013 
21750 3.61167E+013 
21800 3.59441E+013 
21850 3.57722E+013 
21900 3.56009E+013 
21950 3.54303E+013 
22000 3.52604E+013 
22050 3.50911E+013 
22100 3.49225E+013 
22150 3.47545E+013 
22200 3.45872E+013 
22250 3.44205E+013 
22300 3.42545E+013 
22350 3.40892E+013 
22400 3.39245E+013 
22450 3.37605E+013 
22500 3.35972E+013 
22550 3.34344E+013 
22600 3.32724E+013 
22650 3.31109E+013 
22700 3.29502E+013 
22750 3.279E+013 
22800 3.26306E+013 
22850 3.24717E+013 
22900 3.23135E+013 
22950 3.2156E+013 
23000 3.1999E+013 
23050 3.18428E+013 
23100 3.16871E+013 
23150 3.15321E+013 
23200 3.13778E+013 
23250 3.1224E+013 
23300 3.10709E+013 
23350 3.09185E+013 
23400 3.07666E+013 
23450 3.06154E+013 
23500 3.04648E+013 
23550 3.03148E+013 
23600 3.01655E+013 
23650 3.00168E+013 
23700 2.98687E+013 
23750 2.97212E+013 
23800 2.95743E+013 
23850 2.94281E+013 
23900 2.92824E+013 
23950 2.91374E+013 
24000 2.8993E+013 
24050 2.88492E+013 
24100 2.8706E+013 
24150 2.85634E+013 
24200 2.84214E+013 
24250 2.82801E+013 
24300 2.81393E+013 
24350 2.79991E+013 
24400 2.78596E+013 
24450 2.77206E+013 
24500 2.75822E+013 
24550 2.74444E+013 
24600 2.73072E+013 
24650 2.71706E+013 
24700 2.70346E+013 
24750 2.68992E+013 
24800 2.67643E+013 
24850 2.66301E+013 
24900 2.64964E+013 
24950 2.63633E+013 
25000 2.62308E+013 
25050 2.60988E+013 
25100 2.59675E+013 
25150 2.58367E+013 
25200 2.57065E+013 
25250 2.55768E+013 
25300 2.54478E+013 
25350 2.53193E+013 
25400 2.51913E+013 
25450 2.5064E+013 
25500 2.49372E+013 
25550 2.48109E+013 
25600 2.46852E+013 
25650 2.45601E+013 
25700 2.44355E+013 
25750 2.43115E+013 
25800 2.4188E+013 
25850 2.40651E+013 
25900 2.39427E+013 
25950 2.38209E+013 
26000 2.36996E+013 
26050 2.35789E+013 
26100 2.34587E+013 
26150 2.3339E+013 
26200 2.32199E+013 
26250 2.31013E+013 
26300 2.29833E+013 
26350 2.28658E+013 
26400 2.27488E+013 
26450 2.26323E+013 
26500 2.25164E+013 
26550 2.2401E+013 
26600 2.22861E+013 
26650 2.21718E+013 
26700 2.2058E+013 
26750 2.19447E+013 
26800 2.18319E+013 
26850 2.17196E+013 
26900 2.16078E+013 
26950 2.14966E+013 
27000 2.13859E+013 
27050 2.12756E+013 
27100 2.11659E+013 
27150 2.10567E+013 
27200 2.0948E+013 
27250 2.08398E+013 
27300 2.07321E+013 
27350 2.06248E+013 
27400 2.05181E+013 
27450 2.04119E+013 
27500 2.03062E+013 
27550 2.02009E+013 
27600 2.00962E+013 
27650 1.99919E+013 
27700 1.98881E+013 
27750 1.97849E+013 
27800 1.9682E+013 
27850 1.95797E+013 
27900 1.94779E+013 
27950 1.93765E+013 
28000 1.92756E+013 
28050 1.91752E+013 
28100 1.90752E+013 
28150 1.89757E+013 
28200 1.88767E+013 
28250 1.87782E+013 
28300 1.86801E+013 
28350 1.85825E+013 
28400 1.84853E+013 
28450 1.83886E+013 
28500 1.82924E+013 
28550 1.81966E+013 
28600 1.81013E+013 
28650 1.80064E+013 
28700 1.7912E+013 
28750 1.7818E+013 
28800 1.77245E+013 
28850 1.76314E+013 
28900 1.75387E+013 
28950 1.74466E+013 
29000 1.73548E+013 
29050 1.72635E+013 
29100 1.71726E+013 
29150 1.70822E+013 
29200 1.69922E+013 
29250 1.69026E+013 
29300 1.68134E+013 
29350 1.67247E+013 
29400 1.66364E+013 
29450 1.65486E+013 
29500 1.64612E+013 
29550 1.63741E+013 
29600 1.62875E+013 
29650 1.62014E+013 
29700 1.61156E+013 
29750 1.60303E+013 
29800 1.59453E+013 
29850 1.58608E+013 
29900 1.57767E+013 
29950 1.5693E+013 
30000 1.56097E+013 
30050 1.55268E+013 
30100 1.54443E+013 
30150 1.53623E+013 
30200 1.52806E+013 
30250 1.51993E+013 
30300 1.51184E+013 
30350 1.50379E+013 
30400 1.49578E+013 
30450 1.48782E+013 
30500 1.47988E+013 
30550 1.47199E+013 
30600 1.46414E+013 
30650 1.45632E+013 
30700 1.44855E+013 
30750 1.44081E+013 
30800 1.43311E+013 
30850 1.42545E+013 
30900 1.41783E+013 
30950 1.41024E+013 
31000 1.40269E+013 
31050 1.39518E+013 
31100 1.3877E+013 
31150 1.38027E+013 
31200 1.37287E+013 
31250 1.3655E+013 
31300 1.35818E+013 
31350 1.35089E+013 
31400 1.34363E+013 
31450 1.33641E+013 
31500 1.32923E+013 
31550 1.32208E+013 
31600 1.31497E+013 
31650 1.3079E+013 
31700 1.30086E+013 
31750 1.29385E+013 
31800 1.28688E+013 
31850 1.27995E+013 
31900 1.27305E+013 
31950 1.26618E+013 
32000 1.25935E+013 
32050 1.25255E+013 
32100 1.24579E+013 
32150 1.23906E+013 
32200 1.23237E+013 
32250 1.22571E+013 
32300 1.21908E+013 
32350 1.21248E+013 
32400 1.20592E+013 
32450 1.19939E+013 
32500 1.1929E+013 
32550 1.18644E+013 
32600 1.18001E+013 
32650 1.17361E+013 
32700 1.16725E+013 
32750 1.16091E+013 
32800 1.15461E+013 
32850 1.14834E+013 
32900 1.14211E+013 
32950 1.1359E+013 
33000 1.12973E+013 
33050 1.12359E+013 
33100 1.11747E+013 
33150 1.1114E+013 
33200 1.10535E+013 
33250 1.09933E+013 
33300 1.09334E+013 
33350 1.08738E+013 
33400 1.08146E+013 
33450 1.07556E+013 
33500 1.06969E+013 
33550 1.06386E+013 
33600 1.05805E+013 
33650 1.05228E+013 
33700 1.04653E+013 
33750 1.04081E+013 
33800 1.03512E+013 
33850 1.02947E+013 
33900 1.02384E+013 
33950 1.01824E+013 
34000 1.01266E+013 
34050 1.00712E+013 
34100 1.0016E+013 
34150 9.96118E+012 
34200 9.9066E+012 
34250 9.8523E+012 
34300 9.79827E+012 
34350 9.74453E+012 
34400 9.69107E+012 
34450 9.63788E+012 
34500 9.58496E+012 
34550 9.53232E+012 
34600 9.47996E+012 
34650 9.42786E+012 
34700 9.37603E+012 
34750 9.32448E+012 
34800 9.27318E+012 
34850 9.22216E+012 
34900 9.1714E+012 
34950 9.12091E+012 
35000 9.07067E+012 
35050 9.0207E+012 
35100 8.97099E+012 
35150 8.92153E+012 
35200 8.87234E+012 
35250 8.8234E+012 
35300 8.77471E+012 
35350 8.72628E+012 
35400 8.67811E+012 
35450 8.63018E+012 
35500 8.5825E+012 
35550 8.53508E+012 
35600 8.4879E+012 
35650 8.44096E+012 
35700 8.39428E+012 
35750 8.34784E+012 
35800 8.30164E+012 
35850 8.25568E+012 
35900 8.20997E+012 
35950 8.16449E+012 
36000 8.11925E+012 
36050 8.07425E+012 
36100 8.02949E+012 
36150 7.98496E+012 
36200 7.94067E+012 
36250 7.89661E+012 
36300 7.85278E+012 
36350 7.80918E+012 
36400 7.76582E+012 
36450 7.72268E+012 
36500 7.67976E+012 
36550 7.63708E+012 
36600 7.59462E+012 
36650 7.55238E+012 
36700 7.51037E+012 
36750 7.46858E+012 
36800 7.42701E+012 
36850 7.38566E+012 
36900 7.34453E+012 
36950 7.30362E+012 
37000 7.26292E+012 
37050 7.22244E+012 
37100 7.18218E+012 
37150 7.14213E+012 
37200 7.10229E+012 
37250 7.06266E+012 
37300 7.02324E+012 
37350 6.98403E+012 
37400 6.94503E+012 
37450 6.90624E+012 
37500 6.86766E+012 
37550 6.82928E+012 
37600 6.7911E+012 
37650 6.75313E+012 
37700 6.71536E+012 
37750 6.67779E+012 
37800 6.64042E+012 
37850 6.60325E+012 
37900 6.56629E+012 
37950 6.52951E+012 
38000 6.49294E+012 
38050 6.45656E+012 
38100 6.42037E+012 
38150 6.38438E+012 
38200 6.34858E+012 
38250 6.31297E+012 
38300 6.27755E+012 
38350 6.24233E+012 
38400 6.20729E+012 
38450 6.17244E+012 
38500 6.13777E+012 
38550 6.1033E+012 
38600 6.069E+012 
38650 6.0349E+012 
38700 6.00097E+012 
38750 5.96723E+012 
38800 5.93367E+012 
38850 5.90029E+012 
38900 5.86709E+012 
38950 5.83407E+012 
39000 5.80122E+012 
39050 5.76855E+012 
39100 5.73606E+012 
39150 5.70375E+012 
39200 5.67161E+012 
39250 5.63964E+012 
39300 5.60784E+012 
39350 5.57622E+012 
39400 5.54477E+012 
39450 5.51348E+012 
39500 5.48237E+012 
39550 5.45143E+012 
39600 5.42065E+012 
39650 5.39004E+012 
39700 5.35959E+012 
39750 5.32931E+012 
39800 5.2992E+012 
39850 5.26924E+012 
39900 5.23945E+012 
39950 5.20982E+012 
40000 5.18036E+012 
40050 5.15105E+012 
40100 5.1219E+012 
40150 5.09291E+012 
40200 5.06408E+012 
40250 5.0354E+012 
40300 5.00688E+012 
40350 4.97851E+012 
40400 4.9503E+012 
40450 4.92224E+012 
40500 4.89434E+012 
40550 4.86659E+012 
40600 4.83899E+012 
40650 4.81154E+012 
40700 4.78424E+012 
40750 4.75708E+012 
40800 4.73008E+012 
40850 4.70322E+012 
40900 4.67651E+012 
40950 4.64995E+012 
41000 4.62353E+012 
41050 4.59726E+012 
41100 4.57113E+012 
41150 4.54514E+012 
41200 4.51929E+012 
41250 4.49359E+012 
41300 4.46803E+012 
41350 4.4426E+012 
41400 4.41732E+012 
41450 4.39218E+012 
41500 4.36717E+012 
41550 4.3423E+012 
41600 4.31756E+012 
41650 4.29297E+012 
41700 4.2685E+012 
41750 4.24417E+012 
41800 4.21998E+012 
41850 4.19592E+012 
41900 4.17199E+012 
41950 4.14819E+012 
42000 4.12452E+012 
42050 4.10098E+012 
42100 4.07758E+012 
42150 4.0543E+012 
42200 4.03115E+012 
42250 4.00812E+012 
42300 3.98523E+012 
42350 3.96246E+012 
42400 3.93982E+012 
42450 3.9173E+012 
42500 3.8949E+012 
42550 3.87263E+012 
42600 3.85048E+012 
42650 3.82846E+012 
42700 3.80655E+012 
42750 3.78477E+012 
42800 3.7631E+012 
42850 3.74156E+012 
42900 3.72014E+012 
42950 3.69883E+012 
43000 3.67764E+012 
43050 3.65657E+012 
43100 3.63562E+012 
43150 3.61478E+012 
43200 3.59406E+012 
43250 3.57345E+012 
43300 3.55296E+012 
43350 3.53258E+012 
43400 3.51231E+012 
43450 3.49216E+012 
43500 3.47212E+012 
43550 3.45218E+012 
43600 3.43236E+012 
43650 3.41265E+012 
43700 3.39305E+012 
43750 3.37356E+012 
43800 3.35418E+012 
43850 3.3349E+012 
43900 3.31573E+012 
43950 3.29667E+012 
44000 3.27772E+012 
44050 3.25887E+012 
44100 3.24012E+012 
44150 3.22148E+012 
44200 3.20294E+012 
44250 3.18451E+012 
44300 3.16618E+012 
44350 3.14795E+012 
44400 3.12982E+012 
44450 3.1118E+012 
44500 3.09387E+012 
44550 3.07605E+012 
44600 3.05832E+012 
44650 3.0407E+012 
44700 3.02317E+012 
44750 3.00574E+012 
44800 2.9884E+012 
44850 2.97117E+012 
44900 2.95403E+012 
44950 2.93699E+012 
45000 2.92004E+012 
45050 2.90319E+012 
45100 2.88643E+012 
45150 2.86976E+012 
45200 2.85319E+012 
45250 2.83671E+012 
45300 2.82032E+012 
45350 2.80403E+012 
45400 2.78783E+012 
45450 2.77171E+012 
45500 2.75569E+012 
45550 2.73976E+012 
45600 2.72392E+012 
45650 2.70816E+012 
45700 2.6925E+012 
45750 2.67692E+012 
45800 2.66143E+012 
45850 2.64603E+012 
45900 2.63071E+012 
45950 2.61548E+012 
46000 2.60034E+012 
46050 2.58528E+012 
46100 2.5703E+012 
46150 2.55541E+012 
46200 2.54061E+012 
46250 2.52588E+012 
46300 2.51124E+012 
46350 2.49668E+012 
46400 2.48221E+012 
46450 2.46782E+012 
46500 2.4535E+012 
46550 2.43927E+012 
46600 2.42512E+012 
46650 2.41105E+012 
46700 2.39705E+012 
46750 2.38314E+012 
46800 2.3693E+012 
46850 2.35555E+012 
46900 2.34187E+012 
46950 2.32827E+012 
47000 2.31474E+012 
47050 2.30129E+012 
47100 2.28792E+012 
47150 2.27462E+012 
47200 2.2614E+012 
47250 2.24825E+012 
47300 2.23518E+012 
47350 2.22218E+012 
47400 2.20926E+012 
47450 2.19641E+012 
47500 2.18363E+012 
47550 2.17092E+012 
47600 2.15829E+012 
47650 2.14572E+012 
47700 2.13323E+012 
47750 2.12081E+012 
47800 2.10846E+012 
47850 2.09618E+012 
47900 2.08397E+012 
47950 2.07182E+012 
48000 2.05975E+012 
48050 2.04775E+012 
48100 2.03581E+012 
48150 2.02394E+012 
48200 2.01214E+012 
48250 2.00041E+012 
48300 1.98874E+012 
48350 1.97714E+012 
48400 1.96561E+012 
48450 1.95414E+012 
48500 1.94273E+012 
48550 1.93139E+012 
48600 1.92012E+012 
48650 1.90891E+012 
48700 1.89776E+012 
48750 1.88668E+012 
48800 1.87566E+012 
48850 1.8647E+012 
48900 1.85381E+012 
48950 1.84298E+012 
49000 1.83221E+012 
49050 1.8215E+012 
49100 1.81085E+012 
49150 1.80026E+012 
49200 1.78973E+012 
49250 1.77927E+012 
49300 1.76886E+012 
49350 1.75851E+012 
49400 1.74822E+012 
49450 1.73799E+012 
49500 1.72782E+012 
49550 1.7177E+012 
49600 1.70765E+012 
49650 1.69765E+012 
49700 1.68771E+012 
49750 1.67783E+012 
49800 1.668E+012 
49850 1.65823E+012 
49900 1.64851E+012 
49950 1.63885E+012 
50000 1.62925E+012 
50050 1.61969E+012 
50100 1.6102E+012 
50150 1.60076E+012 
50200 1.59137E+012 
50250 1.58204E+012 
50300 1.57276E+012 
50350 1.56353E+012 
50400 1.55436E+012 
50450 1.54524E+012 
50500 1.53617E+012 
50550 1.52715E+012 
50600 1.51819E+012 
50650 1.50928E+012 
50700 1.50041E+012 
50750 1.4916E+012 
50800 1.48284E+012 
50850 1.47413E+012 
50900 1.46547E+012 
50950 1.45686E+012 
51000 1.4483E+012 
51050 1.43979E+012 
51100 1.43132E+012 
51150 1.42291E+012 
51200 1.41454E+012 
51250 1.40623E+012 
51300 1.39796E+012 
51350 1.38973E+012 
51400 1.38156E+012 
51450 1.37343E+012 
51500 1.36535E+012 
51550 1.35731E+012 
51600 1.34933E+012 
51650 1.34138E+012 
51700 1.33349E+012 
51750 1.32563E+012 
51800 1.31783E+012 
51850 1.31007E+012 
51900 1.30235E+012 
51950 1.29468E+012 
52000 1.28705E+012 
52050 1.27947E+012 
52100 1.27193E+012 
52150 1.26443E+012 
52200 1.25698E+012 
52250 1.24957E+012 
52300 1.2422E+012 
52350 1.23488E+012 
52400 1.22759E+012 
52450 1.22035E+012 
52500 1.21315E+012 
52550 1.206E+012 
52600 1.19888E+012 
52650 1.19181E+012 
52700 1.18477E+012 
52750 1.17778E+012 
52800 1.17083E+012 
52850 1.16391E+012 
52900 1.15704E+012 
52950 1.15021E+012 
53000 1.14342E+012 
53050 1.13666E+012 
53100 1.12995E+012 
53150 1.12327E+012 
53200 1.11663E+012 
53250 1.11004E+012 
53300 1.10347E+012 
53350 1.09695E+012 
53400 1.09047E+012 
53450 1.08402E+012 
53500 1.07761E+012 
53550 1.07124E+012 
53600 1.0649E+012 
53650 1.0586E+012 
53700 1.05234E+012 
53750 1.04611E+012 
53800 1.03992E+012 
53850 1.03377E+012 
53900 1.02765E+012 
53950 1.02157E+012 
54000 1.01552E+012 
54050 1.00951E+012 
54100 1.00353E+012 
54150 9.97589E+011 
54200 9.91681E+011 
54250 9.85806E+011 
54300 9.79967E+011 
54350 9.74161E+011 
54400 9.68389E+011 
54450 9.6265E+011 
54500 9.56945E+011 
54550 9.51272E+011 
54600 9.45633E+011 
54650 9.40027E+011 
54700 9.34454E+011 
54750 9.28912E+011 
54800 9.23403E+011 
54850 9.17926E+011 
54900 9.12481E+011 
54950 9.07068E+011 
55000 9.01686E+011 
55050 8.96336E+011 
55100 8.91016E+011 
55150 8.85728E+011 
55200 8.8047E+011 
55250 8.75244E+011 
55300 8.70047E+011 
55350 8.64881E+011 
55400 8.59745E+011 
55450 8.54639E+011 
55500 8.49563E+011 
55550 8.44516E+011 
55600 8.39499E+011 
55650 8.34511E+011 
55700 8.29552E+011 
55750 8.24622E+011 
55800 8.19721E+011 
55850 8.14848E+011 
55900 8.10004E+011 
55950 8.05188E+011 
56000 8.00401E+011 
56050 7.95641E+011 
56100 7.90909E+011 
56150 7.86205E+011 
56200 7.81528E+011 
56250 7.76879E+011 
56300 7.72257E+011 
56350 7.67661E+011 
56400 7.63093E+011 
56450 7.58551E+011 
56500 7.54036E+011 
56550 7.49548E+011 
56600 7.45085E+011 
56650 7.40649E+011 
56700 7.36239E+011 
56750 7.31854E+011 
56800 7.27495E+011 
56850 7.23162E+011 
56900 7.18854E+011 
56950 7.14571E+011 
57000 7.10314E+011 
57050 7.06081E+011 
57100 7.01873E+011 
57150 6.9769E+011 
57200 6.93531E+011 
57250 6.89397E+011 
57300 6.85287E+011 
57350 6.81201E+011 
57400 6.77139E+011 
57450 6.731E+011 
57500 6.69086E+011 
57550 6.65095E+011 
57600 6.61127E+011 
57650 6.57183E+011 
57700 6.53262E+011 
57750 6.49364E+011 
57800 6.45488E+011 
57850 6.41636E+011 
57900 6.37806E+011 
57950 6.33998E+011 
58000 6.30213E+011 
58050 6.26451E+011 
58100 6.2271E+011 
58150 6.18991E+011 
58200 6.15294E+011 
58250 6.11619E+011 
58300 6.07965E+011 
58350 6.04333E+011 
58400 6.00723E+011 
58450 5.97133E+011 
58500 5.93565E+011 
58550 5.90017E+011 
58600 5.86491E+011 
58650 5.82985E+011 
58700 5.795E+011 
58750 5.76035E+011 
58800 5.72591E+011 
58850 5.69167E+011 
58900 5.65763E+011 
58950 5.62379E+011 
59000 5.59015E+011 
59050 5.55671E+011 
59100 5.52347E+011 
59150 5.49042E+011 
59200 5.45757E+011 
59250 5.42491E+011 
59300 5.39244E+011 
59350 5.36016E+011 
59400 5.32808E+011 
59450 5.29618E+011 
59500 5.26447E+011 
59550 5.23295E+011 
59600 5.20162E+011 
59650 5.17047E+011 
59700 5.1395E+011 
59750 5.10872E+011 
59800 5.07811E+011 
59850 5.04769E+011 
59900 5.01745E+011 
59950 4.98738E+011 
60000 4.9575E+011 
60050 4.92779E+011 
60100 4.89825E+011 
60150 4.86889E+011 
60200 4.8397E+011 
60250 4.81069E+011 
60300 4.78185E+011 
60350 4.75317E+011 
60400 4.72467E+011 
60450 4.69633E+011 
60500 4.66817E+011 
60550 4.64016E+011 
60600 4.61233E+011 
60650 4.58466E+011 
60700 4.55715E+011 
60750 4.52981E+011 
60800 4.50262E+011 
60850 4.4756E+011 
60900 4.44874E+011 
60950 4.42203E+011 
61000 4.39549E+011 
61050 4.3691E+011 
61100 4.34287E+011 
61150 4.31679E+011 
61200 4.29087E+011 
61250 4.2651E+011 
61300 4.23948E+011 
61350 4.21402E+011 
61400 4.1887E+011 
61450 4.16354E+011 
61500 4.13852E+011 
61550 4.11366E+011 
61600 4.08894E+011 
61650 4.06436E+011 
61700 4.03994E+011 
61750 4.01565E+011 
61800 3.99151E+011 
61850 3.96752E+011 
61900 3.94366E+011 
61950 3.91995E+011 
62000 3.89638E+011 
62050 3.87295E+011 
62100 3.84966E+011 
62150 3.8265E+011 
62200 3.80348E+011 
62250 3.78061E+011 
62300 3.75786E+011 
62350 3.73525E+011 
62400 3.71277E+011 
62450 3.69043E+011 
62500 3.66822E+011 
62550 3.64614E+011 
62600 3.6242E+011 
62650 3.60238E+011 
62700 3.5807E+011 
62750 3.55914E+011 
62800 3.53771E+011 
62850 3.5164E+011 
62900 3.49523E+011 
62950 3.47418E+011 
63000 3.45325E+011 
63050 3.43245E+011 
63100 3.41178E+011 
63150 3.39122E+011 
63200 3.37079E+011 
63250 3.35048E+011 
63300 3.33029E+011 
63350 3.31022E+011 
63400 3.29027E+011 
63450 3.27044E+011 
63500 3.25073E+011 
63550 3.23113E+011 
63600 3.21165E+011 
63650 3.19229E+011 
63700 3.17304E+011 
63750 3.1539E+011 
63800 3.13489E+011 
63850 3.11598E+011 
63900 3.09718E+011 
63950 3.0785E+011 
64000 3.05993E+011 
64050 3.04147E+011 
64100 3.02312E+011 
64150 3.00488E+011 
64200 2.98675E+011 
64250 2.96872E+011 
64300 2.95081E+011 
64350 2.933E+011 
64400 2.91529E+011 
64450 2.89769E+011 
64500 2.8802E+011 
64550 2.86281E+011 
64600 2.84552E+011 
64650 2.82834E+011 
64700 2.81126E+011 
64750 2.79428E+011 
64800 2.77741E+011 
64850 2.76063E+011 
64900 2.74395E+011 
64950 2.72738E+011 
65000 2.7109E+011 
65050 2.69452E+011 
65100 2.67824E+011 
65150 2.66205E+011 
65200 2.64597E+011 
65250 2.62998E+011 
65300 2.61408E+011 
65350 2.59828E+011 
65400 2.58257E+011 
65450 2.56696E+011 
65500 2.55144E+011 
65550 2.53601E+011 
65600 2.52068E+011 
65650 2.50543E+011 
65700 2.49028E+011 
65750 2.47522E+011 
65800 2.46025E+011 
65850 2.44536E+011 
65900 2.43057E+011 
65950 2.41587E+011 
66000 2.40125E+011 
66050 2.38672E+011 
66100 2.37228E+011 
66150 2.35792E+011 
66200 2.34365E+011 
66250 2.32947E+011 
66300 2.31536E+011 
66350 2.30135E+011 
66400 2.28742E+011 
66450 2.27357E+011 
66500 2.2598E+011 
66550 2.24612E+011 
66600 2.23252E+011 
66650 2.219E+011 
66700 2.20556E+011 
66750 2.1922E+011 
66800 2.17892E+011 
66850 2.16572E+011 
66900 2.1526E+011 
66950 2.13956E+011 
67000 2.1266E+011 
67050 2.11371E+011 
67100 2.1009E+011 
67150 2.08817E+011 
67200 2.07552E+011 
67250 2.06294E+011 
67300 2.05043E+011 
67350 2.038E+011 
67400 2.02565E+011 
67450 2.01337E+011 
67500 2.00116E+011 
67550 1.98903E+011 
67600 1.97697E+011 
67650 1.96498E+011 
67700 1.95306E+011 
67750 1.94121E+011 
67800 1.92944E+011 
67850 1.91774E+011 
67900 1.9061E+011 
67950 1.89454E+011 
68000 1.88304E+011 
68050 1.87162E+011 
68100 1.86026E+011 
68150 1.84897E+011 
68200 1.83775E+011 
68250 1.8266E+011 
68300 1.81551E+011 
68350 1.80449E+011 
68400 1.79354E+011 
68450 1.78265E+011 
68500 1.77183E+011 
68550 1.76107E+011 
68600 1.75038E+011 
68650 1.73975E+011 
68700 1.72918E+011 
68750 1.71868E+011 
68800 1.70824E+011 
68850 1.69787E+011 
68900 1.68755E+011 
68950 1.6773E+011 
69000 1.66711E+011 
69050 1.65699E+011 
69100 1.64692E+011 
69150 1.63691E+011 
69200 1.62696E+011 
69250 1.61708E+011 
69300 1.60725E+011 
69350 1.59748E+011 
69400 1.58777E+011 
69450 1.57812E+011 
69500 1.56853E+011 
69550 1.55899E+011 
69600 1.54951E+011 
69650 1.54009E+011 
69700 1.53073E+011 
69750 1.52142E+011 
69800 1.51217E+011 
69850 1.50297E+011 
69900 1.49383E+011 
69950 1.48474E+011 
70000 1.47571E+011 
70050 1.46673E+011 
70100 1.45781E+011 
70150 1.44894E+011 
70200 1.44013E+011 
70250 1.43136E+011 
70300 1.42265E+011 
70350 1.414E+011 
70400 1.40539E+011 
70450 1.39684E+011 
70500 1.38834E+011 
70550 1.37989E+011 
70600 1.37149E+011 
70650 1.36314E+011 
70700 1.35484E+011 
70750 1.34659E+011 
70800 1.33839E+011 
70850 1.33024E+011 
70900 1.32214E+011 
70950 1.31409E+011 
71000 1.30609E+011 
71050 1.29813E+011 
71100 1.29022E+011 
71150 1.28237E+011 
71200 1.27455E+011 
71250 1.26679E+011 
71300 1.25907E+011 
71350 1.2514E+011 
71400 1.24377E+011 
71450 1.2362E+011 
71500 1.22866E+011 
71550 1.22118E+011 
71600 1.21373E+011 
71650 1.20634E+011 
71700 1.19898E+011 
71750 1.19167E+011 
71800 1.18441E+011 
71850 1.17719E+011 
71900 1.17001E+011 
71950 1.16288E+011 
72000 1.15579E+011 
72050 1.14874E+011 
72100 1.14174E+011 
72150 1.13477E+011 
72200 1.12785E+011 
72250 1.12097E+011 
72300 1.11414E+011 
72350 1.10734E+011 
72400 1.10058E+011 
72450 1.09387E+011 
72500 1.0872E+011 
72550 1.08056E+011 
72600 1.07397E+011 
72650 1.06742E+011 
72700 1.0609E+011 
72750 1.05443E+011 
72800 1.04799E+011 
72850 1.0416E+011 
72900 1.03524E+011 
72950 1.02892E+011 
73000 1.02264E+011 
73050 1.0164E+011 
73100 1.01019E+011 
73150 1.00403E+011 
73200 9.97895E+010 
73250 9.91802E+010 
73300 9.85745E+010 
73350 9.79726E+010 
73400 9.73742E+010 
73450 9.67796E+010 
73500 9.61884E+010 
73550 9.56009E+010 
73600 9.5017E+010 
73650 9.44365E+010 
73700 9.38596E+010 
73750 9.32862E+010 
73800 9.27162E+010 
73850 9.21497E+010 
73900 9.15867E+010 
73950 9.1027E+010 
74000 9.04707E+010 
74050 8.99178E+010 
74100 8.93683E+010 
74150 8.8822E+010 
74200 8.82791E+010 
74250 8.77395E+010 
74300 8.72032E+010 
74350 8.667E+010 
74400 8.61402E+010 
74450 8.56135E+010 
74500 8.509E+010 
74550 8.45697E+010 
74600 8.40526E+010 
74650 8.35386E+010 
74700 8.30277E+010 
74750 8.25199E+010 
74800 8.20152E+010 
74850 8.15135E+010 
74900 8.10149E+010 
74950 8.05193E+010 
75000 8.00267E+010 
75050 7.95372E+010 
75100 7.90505E+010 
75150 7.85669E+010 
75200 7.80861E+010 
75250 7.76083E+010 
75300 7.71334E+010 
75350 7.66613E+010 
75400 7.61921E+010 
75450 7.57258E+010 
75500 7.52623E+010 
75550 7.48016E+010 
75600 7.43437E+010 
75650 7.38886E+010 
75700 7.34363E+010 
75750 7.29867E+010 
75800 7.25398E+010 
75850 7.20956E+010 
75900 7.16542E+010 
75950 7.12154E+010 
76000 7.07793E+010 
76050 7.03458E+010 
76100 6.9915E+010 
76150 6.94868E+010 
76200 6.90611E+010 
76250 6.86381E+010 
76300 6.82177E+010 
76350 6.77997E+010 
76400 6.73844E+010 
76450 6.69715E+010 
76500 6.65612E+010 
76550 6.61534E+010 
76600 6.5748E+010 
76650 6.53451E+010 
76700 6.49446E+010 
76750 6.45466E+010 
76800 6.4151E+010 
76850 6.37578E+010 
76900 6.3367E+010 
76950 6.29786E+010 
77000 6.25926E+010 
77050 6.22089E+010 
77100 6.18275E+010 
77150 6.14484E+010 
77200 6.10717E+010 
77250 6.06972E+010 
77300 6.0325E+010 
77350 5.99551E+010 
77400 5.95874E+010 
77450 5.9222E+010 
77500 5.88588E+010 
77550 5.84978E+010 
77600 5.8139E+010 
77650 5.77824E+010 
77700 5.74279E+010 
77750 5.70756E+010 
77800 5.67255E+010 
77850 5.63775E+010 
77900 5.60316E+010 
77950 5.56878E+010 
78000 5.53461E+010 
78050 5.50064E+010 
78100 5.46689E+010 
78150 5.43334E+010 
78200 5.4E+010 
78250 5.36685E+010 
78300 5.33391E+010 
78350 5.30117E+010 
78400 5.26863E+010 
78450 5.23629E+010 
78500 5.20415E+010 
78550 5.1722E+010 
78600 5.14044E+010 
78650 5.10888E+010 
78700 5.07751E+010 
78750 5.04634E+010 
78800 5.01535E+010 
78850 4.98455E+010 
78900 4.95394E+010 
78950 4.92351E+010 
79000 4.89327E+010 
79050 4.86322E+010 
79100 4.83335E+010 
79150 4.80366E+010 
79200 4.77415E+010 
79250 4.74482E+010 
79300 4.71567E+010 
79350 4.6867E+010 
79400 4.65791E+010 
79450 4.62929E+010 
79500 4.60084E+010 
79550 4.57257E+010 
79600 4.54447E+010 
79650 4.51654E+010 
79700 4.48879E+010 
79750 4.4612E+010 
79800 4.43378E+010 
79850 4.40653E+010 
79900 4.37944E+010 
79950 4.35252E+010 
80000 4.32576E+010 
80050 4.29917E+010 
80100 4.27274E+010 
80150 4.24647E+010 
80200 4.22036E+010 
80250 4.19441E+010 
80300 4.16862E+010 
80350 4.14299E+010 
80400 4.11751E+010 
80450 4.09219E+010 
80500 4.06702E+010 
80550 4.04201E+010 
80600 4.01715E+010 
80650 3.99244E+010 
80700 3.96788E+010 
80750 3.94347E+010 
80800 3.91921E+010 
80850 3.8951E+010 
80900 3.87114E+010 
80950 3.84732E+010 
81000 3.82365E+010 
81050 3.80012E+010 
81100 3.77674E+010 
81150 3.7535E+010 
81200 3.7304E+010 
81250 3.70744E+010 
81300 3.68463E+010 
81350 3.66195E+010 
81400 3.63941E+010 
81450 3.61701E+010 
81500 3.59475E+010 
81550 3.57262E+010 
81600 3.55062E+010 
81650 3.52877E+010 
81700 3.50704E+010 
81750 3.48545E+010 
81800 3.46399E+010 
81850 3.44266E+010 
81900 3.42146E+010 
81950 3.40039E+010 
82000 3.37945E+010 
82050 3.35864E+010 
82100 3.33796E+010 
82150 3.3174E+010 
82200 3.29697E+010 
82250 3.27666E+010 
82300 3.25648E+010 
82350 3.23642E+010 
82400 3.21648E+010 
82450 3.19667E+010 
82500 3.17697E+010 
82550 3.1574E+010 
82600 3.13795E+010 
82650 3.11861E+010 
82700 3.0994E+010 
82750 3.0803E+010 
82800 3.06132E+010 
82850 3.04245E+010 
82900 3.02371E+010 
82950 3.00507E+010 
83000 2.98655E+010 
83050 2.96814E+010 
83100 2.94985E+010 
83150 2.93167E+010 
83200 2.91359E+010 
83250 2.89564E+010 
83300 2.87778E+010 
83350 2.86004E+010 
83400 2.84241E+010 
83450 2.82489E+010 
83500 2.80747E+010 
83550 2.79016E+010 
83600 2.77295E+010 
83650 2.75585E+010 
83700 2.73886E+010 
83750 2.72197E+010 
83800 2.70518E+010 
83850 2.6885E+010 
83900 2.67192E+010 
83950 2.65544E+010 
84000 2.63906E+010 
84050 2.62278E+010 
84100 2.6066E+010 
84150 2.59052E+010 
84200 2.57454E+010 
84250 2.55866E+010 
84300 2.54287E+010 
84350 2.52718E+010 
84400 2.51159E+010 
84450 2.49609E+010 
84500 2.48069E+010 
84550 2.46538E+010 
84600 2.45017E+010 
84650 2.43505E+010 
84700 2.42002E+010 
84750 2.40508E+010 
84800 2.39024E+010 
84850 2.37549E+010 
84900 2.36083E+010 
84950 2.34625E+010 
85000 2.33177E+010 
85050 2.31738E+010 
85100 2.30307E+010 
85150 2.28885E+010 
85200 2.27472E+010 
85250 2.26068E+010 
85300 2.24672E+010 
85350 2.23284E+010 
85400 2.21906E+010 
85450 2.20536E+010 
85500 2.19174E+010 
85550 2.1782E+010 
85600 2.16475E+010 
85650 2.15138E+010 
85700 2.13809E+010 
85750 2.12489E+010 
85800 2.11176E+010 
85850 2.09872E+010 
85900 2.08575E+010 
85950 2.07287E+010 
86000 2.06006E+010 
86050 2.04734E+010 
86100 2.03469E+010 
86150 2.02212E+010 
86200 2.00962E+010 
86250 1.99721E+010 
86300 1.98487E+010 
86350 1.9726E+010 
86400 1.96041E+010 
86450 1.9483E+010 
86500 1.93626E+010 
86550 1.92429E+010 
86600 1.9124E+010 
86650 1.90058E+010 
86700 1.88883E+010 
86750 1.87716E+010 
86800 1.86555E+010 
86850 1.85402E+010 
86900 1.84256E+010 
86950 1.83117E+010 
87000 1.81985E+010 
87050 1.8086E+010 
87100 1.79742E+010 
87150 1.7863E+010 
87200 1.77526E+010 
87250 1.76428E+010 
87300 1.75337E+010 
87350 1.74253E+010 
87400 1.73175E+010 
87450 1.72104E+010 
87500 1.7104E+010 
87550 1.69982E+010 
87600 1.68931E+010 
87650 1.67886E+010 
87700 1.66848E+010 
87750 1.65816E+010 
87800 1.6479E+010 
87850 1.63771E+010 
87900 1.62757E+010 
87950 1.61751E+010 
88000 1.6075E+010 
88050 1.59755E+010 
88100 1.58767E+010 
88150 1.57785E+010 
88200 1.56808E+010 
88250 1.55838E+010 
88300 1.54874E+010 
88350 1.53915E+010 
88400 1.52963E+010 
88450 1.52016E+010 
88500 1.51076E+010 
88550 1.50141E+010 
88600 1.49211E+010 
88650 1.48288E+010 
88700 1.4737E+010 
88750 1.46458E+010 
88800 1.45551E+010 
88850 1.4465E+010 
88900 1.43755E+010 
88950 1.42865E+010 
89000 1.4198E+010 
89050 1.41101E+010 
89100 1.40228E+010 
89150 1.39359E+010 
89200 1.38497E+010 
89250 1.37639E+010 
89300 1.36787E+010 
89350 1.3594E+010 
89400 1.35098E+010 
89450 1.34261E+010 
89500 1.3343E+010 
89550 1.32604E+010 
89600 1.31782E+010 
89650 1.30966E+010 
89700 1.30155E+010 
89750 1.29349E+010 
89800 1.28547E+010 
89850 1.27751E+010 
89900 1.2696E+010 
89950 1.26173E+010 
90000 1.25392E+010 
90050 1.24615E+010 
90100 1.23843E+010 
90150 1.23075E+010 
90200 1.22313E+010 
90250 1.21555E+010 
90300 1.20802E+010 
90350 1.20053E+010 
90400 1.19309E+010 
90450 1.1857E+010 
90500 1.17835E+010 
90550 1.17105E+010 
90600 1.16379E+010 
90650 1.15658E+010 
90700 1.14941E+010 
90750 1.14229E+010 
90800 1.13521E+010 
90850 1.12817E+010 
90900 1.12118E+010 
90950 1.11423E+010 
91000 1.10732E+010 
91050 1.10045E+010 
91100 1.09363E+010 
91150 1.08685E+010 
91200 1.08011E+010 
91250 1.07342E+010 
91300 1.06676E+010 
91350 1.06015E+010 
91400 1.05357E+010 
91450 1.04704E+010 
91500 1.04055E+010 
91550 1.03409E+010 
91600 1.02768E+010 
91650 1.02131E+010 
91700 1.01497E+010 
91750 1.00868E+010 
91800 1.00242E+010 
91850 9.96205E+009 
91900 9.90026E+009 
91950 9.83885E+009 
92000 9.77781E+009 
92050 9.71716E+009 
92100 9.65688E+009 
92150 9.59697E+009 
92200 9.53743E+009 
92250 9.47826E+009 
92300 9.41946E+009 
92350 9.36101E+009 
92400 9.30293E+009 
92450 9.24521E+009 
92500 9.18784E+009 
92550 9.13083E+009 
92600 9.07417E+009 
92650 9.01786E+009 
92700 8.9619E+009 
92750 8.90628E+009 
92800 8.851E+009 
92850 8.79607E+009 
92900 8.74148E+009 
92950 8.68722E+009 
93000 8.6333E+009 
93050 8.57971E+009 
93100 8.52645E+009 
93150 8.47353E+009 
93200 8.42092E+009 
93250 8.36865E+009 
93300 8.3167E+009 
93350 8.26506E+009 
93400 8.21375E+009 
93450 8.16275E+009 
93500 8.11207E+009 
93550 8.0617E+009 
93600 8.01165E+009 
93650 7.9619E+009 
93700 7.91246E+009 
93750 7.86333E+009 
93800 7.81449E+009 
93850 7.76596E+009 
93900 7.71773E+009 
93950 7.6698E+009 
94000 7.62217E+009 
94050 7.57483E+009 
94100 7.52778E+009 
94150 7.48102E+009 
94200 7.43456E+009 
94250 7.38838E+009 
94300 7.34248E+009 
94350 7.29687E+009 
94400 7.25154E+009 
94450 7.20649E+009 
94500 7.16172E+009 
94550 7.11722E+009 
94600 7.07301E+009 
94650 7.02906E+009 
94700 6.98539E+009 
94750 6.94198E+009 
94800 6.89885E+009 
94850 6.85598E+009 
94900 6.81338E+009 
94950 6.77104E+009 
95000 6.72896E+009 
95050 6.68714E+009 
95100 6.64558E+009 
95150 6.60428E+009 
95200 6.56324E+009 
95250 6.52244E+009 
95300 6.48191E+009 
95350 6.44162E+009 
95400 6.40158E+009 
95450 6.36178E+009 
95500 6.32224E+009 
95550 6.28294E+009 
95600 6.24388E+009 
95650 6.20506E+009 
95700 6.16649E+009 
95750 6.12815E+009 
95800 6.09005E+009 
95850 6.05219E+009 
95900 6.01456E+009 
95950 5.97716E+009 
96000 5.93999E+009 
96050 5.90306E+009 
96100 5.86635E+009 
96150 5.82987E+009 
96200 5.79362E+009 
96250 5.75759E+009 
96300 5.72178E+009 
96350 5.6862E+009 
96400 5.65083E+009 
96450 5.61569E+009 
96500 5.58076E+009 
96550 5.54605E+009 
96600 5.51155E+009 
96650 5.47727E+009 
96700 5.4432E+009 
96750 5.40934E+009 
96800 5.37569E+009 
96850 5.34225E+009 
96900 5.30901E+009 
96950 5.27598E+009 
97000 5.24316E+009 
97050 5.21054E+009 
97100 5.17812E+009 
97150 5.1459E+009 
97200 5.11389E+009 
97250 5.08206E+009 
97300 5.05044E+009 
97350 5.01902E+009 
97400 4.98778E+009 
97450 4.95675E+009 
97500 4.9259E+009 
97550 4.89524E+009 
97600 4.86478E+009 
97650 4.8345E+009 
97700 4.80441E+009 
97750 4.77451E+009 
97800 4.74479E+009 
97850 4.71526E+009 
97900 4.68591E+009 
97950 4.65674E+009 
98000 4.62776E+009 
98050 4.59895E+009 
98100 4.57032E+009 
98150 4.54187E+009 
98200 4.51359E+009 
98250 4.48549E+009 
98300 4.45757E+009 
98350 4.42981E+009 
98400 4.40223E+009 
98450 4.37482E+009 
98500 4.34759E+009 
98550 4.32052E+009 
98600 4.29361E+009 
98650 4.26688E+009 
98700 4.24031E+009 
98750 4.2139E+009 
98800 4.18766E+009 
98850 4.16158E+009 
98900 4.13566E+009 
98950 4.10991E+009 
99000 4.08431E+009 
99050 4.05887E+009 
99100 4.03359E+009 
99150 4.00847E+009 
99200 3.9835E+009 
99250 3.95869E+009 
99300 3.93403E+009 
99350 3.90952E+009 
99400 3.88517E+009 
99450 3.86097E+009 
99500 3.83691E+009 
99550 3.81301E+009 
99600 3.78926E+009 
99650 3.76565E+009 
99700 3.74219E+009 
99750 3.71887E+009 
99800 3.6957E+009 
99850 3.67267E+009 
99900 3.64979E+009 
99950 3.62705E+009 
100000 3.60445E+009 
