#F U:\Beamline I20\I20-2_EDE\Wigglers\xop\83mm-small-wiggler\EDE wiggler\1p3T-300mA-0p12x0p8mrad.dat
#C I20EDE 1.3T 300mA 0.12x0.8mrad
#S 1 File written by xplot on Tue Dec 07 18:00:35 2010
#N 2
#L    Energy [eV]  Flux [ph/s/0.1%bw]
50 5.22061E+012 
100 8.28186E+012 
150 1.08393E+013 
200 1.31104E+013 
250 1.51853E+013 
300 1.71125E+013 
350 1.89219E+013 
400 2.06337E+013 
450 2.22622E+013 
500 2.3818E+013 
550 2.53095E+013 
600 2.67432E+013 
650 2.81244E+013 
700 2.94575E+013 
750 3.07461E+013 
800 3.19935E+013 
850 3.32024E+013 
900 3.4375E+013 
950 3.55135E+013 
1000 3.66196E+013 
1050 3.76951E+013 
1100 3.87413E+013 
1150 3.97595E+013 
1200 4.07511E+013 
1250 4.1717E+013 
1300 4.26582E+013 
1350 4.35757E+013 
1400 4.44704E+013 
1450 4.5343E+013 
1500 4.61941E+013 
1550 4.70247E+013 
1600 4.78351E+013 
1650 4.86262E+013 
1700 4.93983E+013 
1750 5.01521E+013 
1800 5.0888E+013 
1850 5.16066E+013 
1900 5.23083E+013 
1950 5.29934E+013 
2000 5.36624E+013 
2050 5.43158E+013 
2100 5.49538E+013 
2150 5.55768E+013 
2200 5.61852E+013 
2250 5.67792E+013 
2300 5.73593E+013 
2350 5.79256E+013 
2400 5.84786E+013 
2450 5.90183E+013 
2500 5.95453E+013 
2550 6.00596E+013 
2600 6.05616E+013 
2650 6.10514E+013 
2700 6.15293E+013 
2750 6.19957E+013 
2800 6.24505E+013 
2850 6.28942E+013 
2900 6.33268E+013 
2950 6.37486E+013 
3000 6.41598E+013 
3050 6.45606E+013 
3100 6.49511E+013 
3150 6.53316E+013 
3200 6.57022E+013 
3250 6.60631E+013 
3300 6.64144E+013 
3350 6.67563E+013 
3400 6.70891E+013 
3450 6.74127E+013 
3500 6.77275E+013 
3550 6.80334E+013 
3600 6.83308E+013 
3650 6.86197E+013 
3700 6.89002E+013 
3750 6.91725E+013 
3800 6.94368E+013 
3850 6.96931E+013 
3900 6.99416E+013 
3950 7.01824E+013 
4000 7.04157E+013 
4050 7.06415E+013 
4100 7.086E+013 
4150 7.10712E+013 
4200 7.12754E+013 
4250 7.14726E+013 
4300 7.16629E+013 
4350 7.18465E+013 
4400 7.20233E+013 
4450 7.21937E+013 
4500 7.23575E+013 
4550 7.25151E+013 
4600 7.26663E+013 
4650 7.28114E+013 
4700 7.29504E+013 
4750 7.30835E+013 
4800 7.32107E+013 
4850 7.33321E+013 
4900 7.34477E+013 
4950 7.35578E+013 
5000 7.36624E+013 
5050 7.37615E+013 
5100 7.38552E+013 
5150 7.39437E+013 
5200 7.40269E+013 
5250 7.41051E+013 
5300 7.41782E+013 
5350 7.42464E+013 
5400 7.43097E+013 
5450 7.43681E+013 
5500 7.44219E+013 
5550 7.44709E+013 
5600 7.45154E+013 
5650 7.45553E+013 
5700 7.45908E+013 
5750 7.4622E+013 
5800 7.46488E+013 
5850 7.46713E+013 
5900 7.46897E+013 
5950 7.47039E+013 
6000 7.47141E+013 
6050 7.47203E+013 
6100 7.47226E+013 
6150 7.4721E+013 
6200 7.47156E+013 
6250 7.47065E+013 
6300 7.46936E+013 
6350 7.46772E+013 
6400 7.46571E+013 
6450 7.46335E+013 
6500 7.46065E+013 
6550 7.45761E+013 
6600 7.45423E+013 
6650 7.45051E+013 
6700 7.44648E+013 
6750 7.44212E+013 
6800 7.43745E+013 
6850 7.43248E+013 
6900 7.42719E+013 
6950 7.42161E+013 
7000 7.41573E+013 
7050 7.40956E+013 
7100 7.40311E+013 
7150 7.39637E+013 
7200 7.38936E+013 
7250 7.38208E+013 
7300 7.37453E+013 
7350 7.36672E+013 
7400 7.35864E+013 
7450 7.35032E+013 
7500 7.34174E+013 
7550 7.33292E+013 
7600 7.32386E+013 
7650 7.31456E+013 
7700 7.30503E+013 
7750 7.29527E+013 
7800 7.28528E+013 
7850 7.27507E+013 
7900 7.26464E+013 
7950 7.254E+013 
8000 7.24315E+013 
8050 7.23209E+013 
8100 7.22083E+013 
8150 7.20937E+013 
8200 7.19772E+013 
8250 7.18587E+013 
8300 7.17383E+013 
8350 7.16161E+013 
8400 7.1492E+013 
8450 7.13662E+013 
8500 7.12386E+013 
8550 7.11093E+013 
8600 7.09783E+013 
8650 7.08456E+013 
8700 7.07113E+013 
8750 7.05754E+013 
8800 7.0438E+013 
8850 7.0299E+013 
8900 7.01585E+013 
8950 7.00165E+013 
9000 6.9873E+013 
9050 6.97282E+013 
9100 6.95819E+013 
9150 6.94343E+013 
9200 6.92854E+013 
9250 6.91351E+013 
9300 6.89836E+013 
9350 6.88308E+013 
9400 6.86768E+013 
9450 6.85215E+013 
9500 6.83651E+013 
9550 6.82075E+013 
9600 6.80488E+013 
9650 6.7889E+013 
9700 6.77281E+013 
9750 6.75662E+013 
9800 6.74032E+013 
9850 6.72392E+013 
9900 6.70742E+013 
9950 6.69083E+013 
10000 6.67414E+013 
10050 6.65736E+013 
10100 6.64049E+013 
10150 6.62353E+013 
10200 6.60649E+013 
10250 6.58936E+013 
10300 6.57215E+013 
10350 6.55486E+013 
10400 6.53749E+013 
10450 6.52005E+013 
10500 6.50253E+013 
10550 6.48495E+013 
10600 6.46729E+013 
10650 6.44956E+013 
10700 6.43177E+013 
10750 6.41392E+013 
10800 6.396E+013 
10850 6.37802E+013 
10900 6.35999E+013 
10950 6.34189E+013 
11000 6.32374E+013 
11050 6.30554E+013 
11100 6.28729E+013 
11150 6.26898E+013 
11200 6.25063E+013 
11250 6.23223E+013 
11300 6.21378E+013 
11350 6.19529E+013 
11400 6.17676E+013 
11450 6.15818E+013 
11500 6.13957E+013 
11550 6.12092E+013 
11600 6.10224E+013 
11650 6.08352E+013 
11700 6.06476E+013 
11750 6.04597E+013 
11800 6.02716E+013 
11850 6.00831E+013 
11900 5.98944E+013 
11950 5.97053E+013 
12000 5.95161E+013 
12050 5.93266E+013 
12100 5.91368E+013 
12150 5.89469E+013 
12200 5.87567E+013 
12250 5.85664E+013 
12300 5.83759E+013 
12350 5.81852E+013 
12400 5.79943E+013 
12450 5.78034E+013 
12500 5.76123E+013 
12550 5.7421E+013 
12600 5.72297E+013 
12650 5.70382E+013 
12700 5.68467E+013 
12750 5.66551E+013 
12800 5.64634E+013 
12850 5.62717E+013 
12900 5.60799E+013 
12950 5.58881E+013 
13000 5.56963E+013 
13050 5.55045E+013 
13100 5.53126E+013 
13150 5.51208E+013 
13200 5.49289E+013 
13250 5.47371E+013 
13300 5.45454E+013 
13350 5.43536E+013 
13400 5.41619E+013 
13450 5.39703E+013 
13500 5.37787E+013 
13550 5.35872E+013 
13600 5.33958E+013 
13650 5.32045E+013 
13700 5.30133E+013 
13750 5.28222E+013 
13800 5.26312E+013 
13850 5.24403E+013 
13900 5.22496E+013 
13950 5.2059E+013 
14000 5.18685E+013 
14050 5.16782E+013 
14100 5.14881E+013 
14150 5.12981E+013 
14200 5.11083E+013 
14250 5.09187E+013 
14300 5.07293E+013 
14350 5.054E+013 
14400 5.0351E+013 
14450 5.01622E+013 
14500 4.99736E+013 
14550 4.97852E+013 
14600 4.9597E+013 
14650 4.94091E+013 
14700 4.92214E+013 
14750 4.90339E+013 
14800 4.88467E+013 
14850 4.86597E+013 
14900 4.84731E+013 
14950 4.82866E+013 
15000 4.81005E+013 
15050 4.79146E+013 
15100 4.7729E+013 
15150 4.75437E+013 
15200 4.73586E+013 
15250 4.71739E+013 
15300 4.69895E+013 
15350 4.68054E+013 
15400 4.66216E+013 
15450 4.64381E+013 
15500 4.62549E+013 
15550 4.60721E+013 
15600 4.58896E+013 
15650 4.57074E+013 
15700 4.55255E+013 
15750 4.5344E+013 
15800 4.51629E+013 
15850 4.4982E+013 
15900 4.48016E+013 
15950 4.46215E+013 
16000 4.44418E+013 
16050 4.42624E+013 
16100 4.40834E+013 
16150 4.39047E+013 
16200 4.37265E+013 
16250 4.35486E+013 
16300 4.33711E+013 
16350 4.3194E+013 
16400 4.30172E+013 
16450 4.28409E+013 
16500 4.26649E+013 
16550 4.24894E+013 
16600 4.23142E+013 
16650 4.21395E+013 
16700 4.19652E+013 
16750 4.17912E+013 
16800 4.16177E+013 
16850 4.14446E+013 
16900 4.12719E+013 
16950 4.10996E+013 
17000 4.09278E+013 
17050 4.07564E+013 
17100 4.05854E+013 
17150 4.04148E+013 
17200 4.02447E+013 
17250 4.0075E+013 
17300 3.99057E+013 
17350 3.97369E+013 
17400 3.95685E+013 
17450 3.94005E+013 
17500 3.9233E+013 
17550 3.90659E+013 
17600 3.88993E+013 
17650 3.87332E+013 
17700 3.85675E+013 
17750 3.84022E+013 
17800 3.82374E+013 
17850 3.8073E+013 
17900 3.79091E+013 
17950 3.77457E+013 
18000 3.75827E+013 
18050 3.74202E+013 
18100 3.72581E+013 
18150 3.70966E+013 
18200 3.69354E+013 
18250 3.67748E+013 
18300 3.66146E+013 
18350 3.64549E+013 
18400 3.62956E+013 
18450 3.61369E+013 
18500 3.59786E+013 
18550 3.58207E+013 
18600 3.56634E+013 
18650 3.55065E+013 
18700 3.53501E+013 
18750 3.51942E+013 
18800 3.50387E+013 
18850 3.48838E+013 
18900 3.47293E+013 
18950 3.45753E+013 
19000 3.44218E+013 
19050 3.42687E+013 
19100 3.41162E+013 
19150 3.39641E+013 
19200 3.38125E+013 
19250 3.36614E+013 
19300 3.35108E+013 
19350 3.33606E+013 
19400 3.3211E+013 
19450 3.30618E+013 
19500 3.29132E+013 
19550 3.2765E+013 
19600 3.26173E+013 
19650 3.247E+013 
19700 3.23233E+013 
19750 3.21771E+013 
19800 3.20314E+013 
19850 3.18861E+013 
19900 3.17413E+013 
19950 3.1597E+013 
20000 3.14533E+013 
20050 3.131E+013 
20100 3.11671E+013 
20150 3.10248E+013 
20200 3.0883E+013 
20250 3.07416E+013 
20300 3.06008E+013 
20350 3.04604E+013 
20400 3.03206E+013 
20450 3.01812E+013 
20500 3.00423E+013 
20550 2.99039E+013 
20600 2.9766E+013 
20650 2.96285E+013 
20700 2.94916E+013 
20750 2.93551E+013 
20800 2.92192E+013 
20850 2.90837E+013 
20900 2.89487E+013 
20950 2.88142E+013 
21000 2.86802E+013 
21050 2.85467E+013 
21100 2.84137E+013 
21150 2.82811E+013 
21200 2.8149E+013 
21250 2.80175E+013 
21300 2.78864E+013 
21350 2.77558E+013 
21400 2.76256E+013 
21450 2.7496E+013 
21500 2.73668E+013 
21550 2.72381E+013 
21600 2.71099E+013 
21650 2.69822E+013 
21700 2.6855E+013 
21750 2.67282E+013 
21800 2.66019E+013 
21850 2.64761E+013 
21900 2.63508E+013 
21950 2.6226E+013 
22000 2.61016E+013 
22050 2.59777E+013 
22100 2.58543E+013 
22150 2.57314E+013 
22200 2.56089E+013 
22250 2.54869E+013 
22300 2.53654E+013 
22350 2.52443E+013 
22400 2.51238E+013 
22450 2.50037E+013 
22500 2.4884E+013 
22550 2.47649E+013 
22600 2.46462E+013 
22650 2.4528E+013 
22700 2.44102E+013 
22750 2.42929E+013 
22800 2.41761E+013 
22850 2.40597E+013 
22900 2.39438E+013 
22950 2.38283E+013 
23000 2.37133E+013 
23050 2.35988E+013 
23100 2.34848E+013 
23150 2.33712E+013 
23200 2.3258E+013 
23250 2.31453E+013 
23300 2.30331E+013 
23350 2.29213E+013 
23400 2.281E+013 
23450 2.26991E+013 
23500 2.25887E+013 
23550 2.24787E+013 
23600 2.23692E+013 
23650 2.22601E+013 
23700 2.21515E+013 
23750 2.20433E+013 
23800 2.19356E+013 
23850 2.18283E+013 
23900 2.17215E+013 
23950 2.16151E+013 
24000 2.15091E+013 
24050 2.14036E+013 
24100 2.12985E+013 
24150 2.11939E+013 
24200 2.10897E+013 
24250 2.09859E+013 
24300 2.08826E+013 
24350 2.07797E+013 
24400 2.06772E+013 
24450 2.05752E+013 
24500 2.04736E+013 
24550 2.03725E+013 
24600 2.02717E+013 
24650 2.01714E+013 
24700 2.00715E+013 
24750 1.99721E+013 
24800 1.9873E+013 
24850 1.97744E+013 
24900 1.96762E+013 
24950 1.95784E+013 
25000 1.94811E+013 
25050 1.93842E+013 
25100 1.92876E+013 
25150 1.91915E+013 
25200 1.90959E+013 
25250 1.90006E+013 
25300 1.89057E+013 
25350 1.88113E+013 
25400 1.87172E+013 
25450 1.86236E+013 
25500 1.85304E+013 
25550 1.84376E+013 
25600 1.83452E+013 
25650 1.82531E+013 
25700 1.81616E+013 
25750 1.80703E+013 
25800 1.79796E+013 
25850 1.78891E+013 
25900 1.77991E+013 
25950 1.77095E+013 
26000 1.76203E+013 
26050 1.75315E+013 
26100 1.74431E+013 
26150 1.73551E+013 
26200 1.72674E+013 
26250 1.71802E+013 
26300 1.70933E+013 
26350 1.70068E+013 
26400 1.69207E+013 
26450 1.6835E+013 
26500 1.67497E+013 
26550 1.66648E+013 
26600 1.65802E+013 
26650 1.6496E+013 
26700 1.64122E+013 
26750 1.63288E+013 
26800 1.62458E+013 
26850 1.61631E+013 
26900 1.60808E+013 
26950 1.59988E+013 
27000 1.59173E+013 
27050 1.58361E+013 
27100 1.57553E+013 
27150 1.56748E+013 
27200 1.55947E+013 
27250 1.5515E+013 
27300 1.54357E+013 
27350 1.53567E+013 
27400 1.5278E+013 
27450 1.51998E+013 
27500 1.51218E+013 
27550 1.50443E+013 
27600 1.49671E+013 
27650 1.48902E+013 
27700 1.48137E+013 
27750 1.47376E+013 
27800 1.46618E+013 
27850 1.45864E+013 
27900 1.45113E+013 
27950 1.44365E+013 
28000 1.43621E+013 
28050 1.42881E+013 
28100 1.42143E+013 
28150 1.4141E+013 
28200 1.4068E+013 
28250 1.39953E+013 
28300 1.39229E+013 
28350 1.38509E+013 
28400 1.37792E+013 
28450 1.37079E+013 
28500 1.36369E+013 
28550 1.35662E+013 
28600 1.34958E+013 
28650 1.34258E+013 
28700 1.33561E+013 
28750 1.32868E+013 
28800 1.32178E+013 
28850 1.3149E+013 
28900 1.30807E+013 
28950 1.30126E+013 
29000 1.29449E+013 
29050 1.28774E+013 
29100 1.28103E+013 
29150 1.27435E+013 
29200 1.26771E+013 
29250 1.26109E+013 
29300 1.25451E+013 
29350 1.24796E+013 
29400 1.24144E+013 
29450 1.23494E+013 
29500 1.22849E+013 
29550 1.22206E+013 
29600 1.21566E+013 
29650 1.20929E+013 
29700 1.20296E+013 
29750 1.19665E+013 
29800 1.19037E+013 
29850 1.18413E+013 
29900 1.17791E+013 
29950 1.17172E+013 
30000 1.16557E+013 
30050 1.15944E+013 
30100 1.15334E+013 
30150 1.14727E+013 
30200 1.14124E+013 
30250 1.13523E+013 
30300 1.12925E+013 
30350 1.12329E+013 
30400 1.11737E+013 
30450 1.11148E+013 
30500 1.10561E+013 
30550 1.09977E+013 
30600 1.09396E+013 
30650 1.08818E+013 
30700 1.08243E+013 
30750 1.07671E+013 
30800 1.07101E+013 
30850 1.06534E+013 
30900 1.0597E+013 
30950 1.05409E+013 
31000 1.0485E+013 
31050 1.04294E+013 
31100 1.03741E+013 
31150 1.0319E+013 
31200 1.02643E+013 
31250 1.02097E+013 
31300 1.01555E+013 
31350 1.01015E+013 
31400 1.00478E+013 
31450 9.99436E+012 
31500 9.94118E+012 
31550 9.88826E+012 
31600 9.8356E+012 
31650 9.7832E+012 
31700 9.73105E+012 
31750 9.67917E+012 
31800 9.62754E+012 
31850 9.57616E+012 
31900 9.52504E+012 
31950 9.47418E+012 
32000 9.42356E+012 
32050 9.3732E+012 
32100 9.32309E+012 
32150 9.27322E+012 
32200 9.22361E+012 
32250 9.17424E+012 
32300 9.12511E+012 
32350 9.07623E+012 
32400 9.0276E+012 
32450 8.9792E+012 
32500 8.93105E+012 
32550 8.88314E+012 
32600 8.83547E+012 
32650 8.78803E+012 
32700 8.74084E+012 
32750 8.69388E+012 
32800 8.64715E+012 
32850 8.60066E+012 
32900 8.5544E+012 
32950 8.50838E+012 
33000 8.46258E+012 
33050 8.41702E+012 
33100 8.37168E+012 
33150 8.32657E+012 
33200 8.2817E+012 
33250 8.23704E+012 
33300 8.19261E+012 
33350 8.14841E+012 
33400 8.10443E+012 
33450 8.06067E+012 
33500 8.01713E+012 
33550 7.97381E+012 
33600 7.93071E+012 
33650 7.88783E+012 
33700 7.84517E+012 
33750 7.80272E+012 
33800 7.76049E+012 
33850 7.71847E+012 
33900 7.67666E+012 
33950 7.63507E+012 
34000 7.59369E+012 
34050 7.55252E+012 
34100 7.51156E+012 
34150 7.47081E+012 
34200 7.43026E+012 
34250 7.38992E+012 
34300 7.34979E+012 
34350 7.30986E+012 
34400 7.27014E+012 
34450 7.23062E+012 
34500 7.1913E+012 
34550 7.15218E+012 
34600 7.11327E+012 
34650 7.07455E+012 
34700 7.03603E+012 
34750 6.99771E+012 
34800 6.95958E+012 
34850 6.92165E+012 
34900 6.88392E+012 
34950 6.84638E+012 
35000 6.80903E+012 
35050 6.77187E+012 
35100 6.73491E+012 
35150 6.69813E+012 
35200 6.66155E+012 
35250 6.62515E+012 
35300 6.58894E+012 
35350 6.55292E+012 
35400 6.51708E+012 
35450 6.48143E+012 
35500 6.44596E+012 
35550 6.41068E+012 
35600 6.37558E+012 
35650 6.34066E+012 
35700 6.30592E+012 
35750 6.27136E+012 
35800 6.23698E+012 
35850 6.20278E+012 
35900 6.16875E+012 
35950 6.13491E+012 
36000 6.10123E+012 
36050 6.06774E+012 
36100 6.03441E+012 
36150 6.00126E+012 
36200 5.96829E+012 
36250 5.93548E+012 
36300 5.90285E+012 
36350 5.87038E+012 
36400 5.83809E+012 
36450 5.80596E+012 
36500 5.774E+012 
36550 5.74221E+012 
36600 5.71058E+012 
36650 5.67912E+012 
36700 5.64783E+012 
36750 5.61669E+012 
36800 5.58572E+012 
36850 5.55492E+012 
36900 5.52427E+012 
36950 5.49378E+012 
37000 5.46346E+012 
37050 5.43329E+012 
37100 5.40328E+012 
37150 5.37343E+012 
37200 5.34374E+012 
37250 5.3142E+012 
37300 5.28481E+012 
37350 5.25559E+012 
37400 5.22651E+012 
37450 5.19759E+012 
37500 5.16882E+012 
37550 5.1402E+012 
37600 5.11173E+012 
37650 5.08342E+012 
37700 5.05525E+012 
37750 5.02723E+012 
37800 4.99936E+012 
37850 4.97163E+012 
37900 4.94406E+012 
37950 4.91663E+012 
38000 4.88934E+012 
38050 4.8622E+012 
38100 4.8352E+012 
38150 4.80834E+012 
38200 4.78163E+012 
38250 4.75506E+012 
38300 4.72863E+012 
38350 4.70233E+012 
38400 4.67618E+012 
38450 4.65017E+012 
38500 4.6243E+012 
38550 4.59856E+012 
38600 4.57296E+012 
38650 4.5475E+012 
38700 4.52217E+012 
38750 4.49697E+012 
38800 4.47191E+012 
38850 4.44699E+012 
38900 4.42219E+012 
38950 4.39753E+012 
39000 4.373E+012 
39050 4.3486E+012 
39100 4.32434E+012 
39150 4.3002E+012 
39200 4.27618E+012 
39250 4.2523E+012 
39300 4.22855E+012 
39350 4.20492E+012 
39400 4.18142E+012 
39450 4.15805E+012 
39500 4.13479E+012 
39550 4.11167E+012 
39600 4.08867E+012 
39650 4.06579E+012 
39700 4.04303E+012 
39750 4.0204E+012 
39800 3.99789E+012 
39850 3.97549E+012 
39900 3.95322E+012 
39950 3.93107E+012 
40000 3.90904E+012 
40050 3.88712E+012 
40100 3.86533E+012 
40150 3.84364E+012 
40200 3.82208E+012 
40250 3.80064E+012 
40300 3.7793E+012 
40350 3.75809E+012 
40400 3.73698E+012 
40450 3.716E+012 
40500 3.69512E+012 
40550 3.67436E+012 
40600 3.65371E+012 
40650 3.63317E+012 
40700 3.61274E+012 
40750 3.59242E+012 
40800 3.57221E+012 
40850 3.55211E+012 
40900 3.53212E+012 
40950 3.51224E+012 
41000 3.49247E+012 
41050 3.4728E+012 
41100 3.45324E+012 
41150 3.43378E+012 
41200 3.41443E+012 
41250 3.39519E+012 
41300 3.37605E+012 
41350 3.35701E+012 
41400 3.33808E+012 
41450 3.31924E+012 
41500 3.30052E+012 
41550 3.28189E+012 
41600 3.26336E+012 
41650 3.24494E+012 
41700 3.22661E+012 
41750 3.20839E+012 
41800 3.19026E+012 
41850 3.17223E+012 
41900 3.1543E+012 
41950 3.13647E+012 
42000 3.11874E+012 
42050 3.1011E+012 
42100 3.08356E+012 
42150 3.06611E+012 
42200 3.04876E+012 
42250 3.0315E+012 
42300 3.01434E+012 
42350 2.99727E+012 
42400 2.98029E+012 
42450 2.96341E+012 
42500 2.94662E+012 
42550 2.92992E+012 
42600 2.91331E+012 
42650 2.8968E+012 
42700 2.88037E+012 
42750 2.86403E+012 
42800 2.84779E+012 
42850 2.83163E+012 
42900 2.81556E+012 
42950 2.79958E+012 
43000 2.78368E+012 
43050 2.76787E+012 
43100 2.75215E+012 
43150 2.73652E+012 
43200 2.72097E+012 
43250 2.70551E+012 
43300 2.69013E+012 
43350 2.67484E+012 
43400 2.65963E+012 
43450 2.6445E+012 
43500 2.62946E+012 
43550 2.6145E+012 
43600 2.59962E+012 
43650 2.58482E+012 
43700 2.57011E+012 
43750 2.55547E+012 
43800 2.54092E+012 
43850 2.52645E+012 
43900 2.51205E+012 
43950 2.49774E+012 
44000 2.48351E+012 
44050 2.46935E+012 
44100 2.45527E+012 
44150 2.44127E+012 
44200 2.42735E+012 
44250 2.4135E+012 
44300 2.39973E+012 
44350 2.38603E+012 
44400 2.37241E+012 
44450 2.35887E+012 
44500 2.3454E+012 
44550 2.33201E+012 
44600 2.31869E+012 
44650 2.30544E+012 
44700 2.29227E+012 
44750 2.27917E+012 
44800 2.26614E+012 
44850 2.25319E+012 
44900 2.2403E+012 
44950 2.22749E+012 
45000 2.21475E+012 
45050 2.20208E+012 
45100 2.18948E+012 
45150 2.17695E+012 
45200 2.16448E+012 
45250 2.15209E+012 
45300 2.13977E+012 
45350 2.12751E+012 
45400 2.11533E+012 
45450 2.10321E+012 
45500 2.09116E+012 
45550 2.07917E+012 
45600 2.06726E+012 
45650 2.0554E+012 
45700 2.04362E+012 
45750 2.0319E+012 
45800 2.02024E+012 
45850 2.00865E+012 
45900 1.99713E+012 
45950 1.98567E+012 
46000 1.97427E+012 
46050 1.96293E+012 
46100 1.95166E+012 
46150 1.94045E+012 
46200 1.92931E+012 
46250 1.91822E+012 
46300 1.9072E+012 
46350 1.89624E+012 
46400 1.88534E+012 
46450 1.87451E+012 
46500 1.86373E+012 
46550 1.85301E+012 
46600 1.84235E+012 
46650 1.83176E+012 
46700 1.82122E+012 
46750 1.81074E+012 
46800 1.80031E+012 
46850 1.78995E+012 
46900 1.77965E+012 
46950 1.7694E+012 
47000 1.75921E+012 
47050 1.74908E+012 
47100 1.739E+012 
47150 1.72898E+012 
47200 1.71902E+012 
47250 1.70911E+012 
47300 1.69926E+012 
47350 1.68946E+012 
47400 1.67972E+012 
47450 1.67003E+012 
47500 1.6604E+012 
47550 1.65082E+012 
47600 1.64129E+012 
47650 1.63182E+012 
47700 1.62241E+012 
47750 1.61304E+012 
47800 1.60373E+012 
47850 1.59447E+012 
47900 1.58526E+012 
47950 1.5761E+012 
48000 1.56699E+012 
48050 1.55794E+012 
48100 1.54894E+012 
48150 1.53998E+012 
48200 1.53108E+012 
48250 1.52223E+012 
48300 1.51343E+012 
48350 1.50468E+012 
48400 1.49597E+012 
48450 1.48732E+012 
48500 1.47871E+012 
48550 1.47016E+012 
48600 1.46165E+012 
48650 1.45319E+012 
48700 1.44477E+012 
48750 1.43641E+012 
48800 1.42809E+012 
48850 1.41982E+012 
48900 1.41159E+012 
48950 1.40342E+012 
49000 1.39528E+012 
49050 1.3872E+012 
49100 1.37916E+012 
49150 1.37116E+012 
49200 1.36321E+012 
49250 1.35531E+012 
49300 1.34745E+012 
49350 1.33963E+012 
49400 1.33186E+012 
49450 1.32413E+012 
49500 1.31645E+012 
49550 1.30881E+012 
49600 1.30121E+012 
49650 1.29366E+012 
49700 1.28615E+012 
49750 1.27868E+012 
49800 1.27125E+012 
49850 1.26387E+012 
49900 1.25653E+012 
49950 1.24922E+012 
50000 1.24196E+012 
50050 1.23475E+012 
50100 1.22757E+012 
50150 1.22043E+012 
50200 1.21334E+012 
50250 1.20628E+012 
50300 1.19927E+012 
50350 1.19229E+012 
50400 1.18535E+012 
50450 1.17846E+012 
50500 1.1716E+012 
50550 1.16478E+012 
50600 1.158E+012 
50650 1.15126E+012 
50700 1.14456E+012 
50750 1.13789E+012 
50800 1.13126E+012 
50850 1.12467E+012 
50900 1.11812E+012 
50950 1.11161E+012 
51000 1.10513E+012 
51050 1.09869E+012 
51100 1.09229E+012 
51150 1.08592E+012 
51200 1.07959E+012 
51250 1.07329E+012 
51300 1.06704E+012 
51350 1.06081E+012 
51400 1.05462E+012 
51450 1.04847E+012 
51500 1.04235E+012 
51550 1.03627E+012 
51600 1.03022E+012 
51650 1.02421E+012 
51700 1.01823E+012 
51750 1.01228E+012 
51800 1.00637E+012 
51850 1.0005E+012 
51900 9.94653E+011 
51950 9.88843E+011 
52000 9.83066E+011 
52050 9.77322E+011 
52100 9.7161E+011 
52150 9.65932E+011 
52200 9.60286E+011 
52250 9.54672E+011 
52300 9.4909E+011 
52350 9.4354E+011 
52400 9.38022E+011 
52450 9.32536E+011 
52500 9.27081E+011 
52550 9.21657E+011 
52600 9.16264E+011 
52650 9.10902E+011 
52700 9.05571E+011 
52750 9.00271E+011 
52800 8.95001E+011 
52850 8.89761E+011 
52900 8.84551E+011 
52950 8.79371E+011 
53000 8.7422E+011 
53050 8.69099E+011 
53100 8.64008E+011 
53150 8.58945E+011 
53200 8.53912E+011 
53250 8.48908E+011 
53300 8.43932E+011 
53350 8.38985E+011 
53400 8.34067E+011 
53450 8.29176E+011 
53500 8.24314E+011 
53550 8.1948E+011 
53600 8.14673E+011 
53650 8.09894E+011 
53700 8.05143E+011 
53750 8.00418E+011 
53800 7.95721E+011 
53850 7.91051E+011 
53900 7.86408E+011 
53950 7.81792E+011 
54000 7.77202E+011 
54050 7.72638E+011 
54100 7.68101E+011 
54150 7.6359E+011 
54200 7.59105E+011 
54250 7.54646E+011 
54300 7.50212E+011 
54350 7.45804E+011 
54400 7.41421E+011 
54450 7.37064E+011 
54500 7.32732E+011 
54550 7.28424E+011 
54600 7.24142E+011 
54650 7.19884E+011 
54700 7.15651E+011 
54750 7.11442E+011 
54800 7.07257E+011 
54850 7.03097E+011 
54900 6.98961E+011 
54950 6.94848E+011 
55000 6.90759E+011 
55050 6.86694E+011 
55100 6.82652E+011 
55150 6.78634E+011 
55200 6.74639E+011 
55250 6.70667E+011 
55300 6.66717E+011 
55350 6.62791E+011 
55400 6.58887E+011 
55450 6.55006E+011 
55500 6.51148E+011 
55550 6.47311E+011 
55600 6.43497E+011 
55650 6.39705E+011 
55700 6.35935E+011 
55750 6.32186E+011 
55800 6.2846E+011 
55850 6.24755E+011 
55900 6.21071E+011 
55950 6.17409E+011 
56000 6.13768E+011 
56050 6.10148E+011 
56100 6.06549E+011 
56150 6.0297E+011 
56200 5.99413E+011 
56250 5.95876E+011 
56300 5.9236E+011 
56350 5.88864E+011 
56400 5.85388E+011 
56450 5.81932E+011 
56500 5.78497E+011 
56550 5.75081E+011 
56600 5.71685E+011 
56650 5.68309E+011 
56700 5.64952E+011 
56750 5.61615E+011 
56800 5.58298E+011 
56850 5.54999E+011 
56900 5.5172E+011 
56950 5.4846E+011 
57000 5.45218E+011 
57050 5.41996E+011 
57100 5.38792E+011 
57150 5.35607E+011 
57200 5.3244E+011 
57250 5.29292E+011 
57300 5.26162E+011 
57350 5.2305E+011 
57400 5.19956E+011 
57450 5.1688E+011 
57500 5.13823E+011 
57550 5.10783E+011 
57600 5.0776E+011 
57650 5.04755E+011 
57700 5.01768E+011 
57750 4.98798E+011 
57800 4.95845E+011 
57850 4.9291E+011 
57900 4.89992E+011 
57950 4.8709E+011 
58000 4.84206E+011 
58050 4.81338E+011 
58100 4.78487E+011 
58150 4.75653E+011 
58200 4.72835E+011 
58250 4.70033E+011 
58300 4.67248E+011 
58350 4.64479E+011 
58400 4.61726E+011 
58450 4.5899E+011 
58500 4.56269E+011 
58550 4.53564E+011 
58600 4.50875E+011 
58650 4.48201E+011 
58700 4.45544E+011 
58750 4.42901E+011 
58800 4.40274E+011 
58850 4.37663E+011 
58900 4.35066E+011 
58950 4.32485E+011 
59000 4.29919E+011 
59050 4.27368E+011 
59100 4.24832E+011 
59150 4.2231E+011 
59200 4.19803E+011 
59250 4.17311E+011 
59300 4.14834E+011 
59350 4.12371E+011 
59400 4.09922E+011 
59450 4.07488E+011 
59500 4.05068E+011 
59550 4.02662E+011 
59600 4.0027E+011 
59650 3.97892E+011 
59700 3.95528E+011 
59750 3.93178E+011 
59800 3.90841E+011 
59850 3.88519E+011 
59900 3.8621E+011 
59950 3.83914E+011 
60000 3.81632E+011 
60050 3.79363E+011 
60100 3.77107E+011 
60150 3.74865E+011 
60200 3.72636E+011 
60250 3.70419E+011 
60300 3.68216E+011 
60350 3.66026E+011 
60400 3.63848E+011 
60450 3.61684E+011 
60500 3.59532E+011 
60550 3.57392E+011 
60600 3.55266E+011 
60650 3.53151E+011 
60700 3.51049E+011 
60750 3.4896E+011 
60800 3.46882E+011 
60850 3.44817E+011 
60900 3.42764E+011 
60950 3.40723E+011 
61000 3.38693E+011 
61050 3.36676E+011 
61100 3.34671E+011 
61150 3.32677E+011 
61200 3.30695E+011 
61250 3.28725E+011 
61300 3.26766E+011 
61350 3.24819E+011 
61400 3.22883E+011 
61450 3.20959E+011 
61500 3.19046E+011 
61550 3.17144E+011 
61600 3.15253E+011 
61650 3.13374E+011 
61700 3.11505E+011 
61750 3.09648E+011 
61800 3.07801E+011 
61850 3.05965E+011 
61900 3.0414E+011 
61950 3.02326E+011 
62000 3.00523E+011 
62050 2.9873E+011 
62100 2.96947E+011 
62150 2.95175E+011 
62200 2.93414E+011 
62250 2.91663E+011 
62300 2.89922E+011 
62350 2.88191E+011 
62400 2.86471E+011 
62450 2.84761E+011 
62500 2.8306E+011 
62550 2.8137E+011 
62600 2.7969E+011 
62650 2.7802E+011 
62700 2.76359E+011 
62750 2.74708E+011 
62800 2.73067E+011 
62850 2.71436E+011 
62900 2.69814E+011 
62950 2.68202E+011 
63000 2.66599E+011 
63050 2.65006E+011 
63100 2.63422E+011 
63150 2.61848E+011 
63200 2.60283E+011 
63250 2.58727E+011 
63300 2.5718E+011 
63350 2.55642E+011 
63400 2.54113E+011 
63450 2.52594E+011 
63500 2.51083E+011 
63550 2.49582E+011 
63600 2.48089E+011 
63650 2.46605E+011 
63700 2.45129E+011 
63750 2.43663E+011 
63800 2.42205E+011 
63850 2.40756E+011 
63900 2.39315E+011 
63950 2.37883E+011 
64000 2.36459E+011 
64050 2.35043E+011 
64100 2.33636E+011 
64150 2.32238E+011 
64200 2.30847E+011 
64250 2.29465E+011 
64300 2.28091E+011 
64350 2.26725E+011 
64400 2.25367E+011 
64450 2.24017E+011 
64500 2.22676E+011 
64550 2.21342E+011 
64600 2.20016E+011 
64650 2.18697E+011 
64700 2.17387E+011 
64750 2.16084E+011 
64800 2.14789E+011 
64850 2.13502E+011 
64900 2.12222E+011 
64950 2.1095E+011 
65000 2.09686E+011 
65050 2.08429E+011 
65100 2.07179E+011 
65150 2.05937E+011 
65200 2.04702E+011 
65250 2.03475E+011 
65300 2.02254E+011 
65350 2.01041E+011 
65400 1.99835E+011 
65450 1.98637E+011 
65500 1.97445E+011 
65550 1.9626E+011 
65600 1.95083E+011 
65650 1.93912E+011 
65700 1.92749E+011 
65750 1.91592E+011 
65800 1.90442E+011 
65850 1.89299E+011 
65900 1.88163E+011 
65950 1.87033E+011 
66000 1.8591E+011 
66050 1.84794E+011 
66100 1.83684E+011 
66150 1.82581E+011 
66200 1.81485E+011 
66250 1.80395E+011 
66300 1.79311E+011 
66350 1.78235E+011 
66400 1.77164E+011 
66450 1.76099E+011 
66500 1.75041E+011 
66550 1.7399E+011 
66600 1.72944E+011 
66650 1.71905E+011 
66700 1.70872E+011 
66750 1.69845E+011 
66800 1.68824E+011 
66850 1.67809E+011 
66900 1.66801E+011 
66950 1.65798E+011 
67000 1.64801E+011 
67050 1.6381E+011 
67100 1.62825E+011 
67150 1.61846E+011 
67200 1.60873E+011 
67250 1.59905E+011 
67300 1.58943E+011 
67350 1.57987E+011 
67400 1.57037E+011 
67450 1.56092E+011 
67500 1.55153E+011 
67550 1.5422E+011 
67600 1.53292E+011 
67650 1.52369E+011 
67700 1.51452E+011 
67750 1.50541E+011 
67800 1.49635E+011 
67850 1.48734E+011 
67900 1.47839E+011 
67950 1.46949E+011 
68000 1.46064E+011 
68050 1.45184E+011 
68100 1.4431E+011 
68150 1.43441E+011 
68200 1.42577E+011 
68250 1.41719E+011 
68300 1.40865E+011 
68350 1.40017E+011 
68400 1.39173E+011 
68450 1.38335E+011 
68500 1.37501E+011 
68550 1.36673E+011 
68600 1.35849E+011 
68650 1.35031E+011 
68700 1.34217E+011 
68750 1.33408E+011 
68800 1.32604E+011 
68850 1.31805E+011 
68900 1.3101E+011 
68950 1.3022E+011 
69000 1.29435E+011 
69050 1.28655E+011 
69100 1.27879E+011 
69150 1.27108E+011 
69200 1.26342E+011 
69250 1.2558E+011 
69300 1.24822E+011 
69350 1.2407E+011 
69400 1.23321E+011 
69450 1.22577E+011 
69500 1.21838E+011 
69550 1.21103E+011 
69600 1.20372E+011 
69650 1.19646E+011 
69700 1.18924E+011 
69750 1.18206E+011 
69800 1.17493E+011 
69850 1.16784E+011 
69900 1.16079E+011 
69950 1.15378E+011 
70000 1.14682E+011 
70050 1.13989E+011 
70100 1.13301E+011 
70150 1.12617E+011 
70200 1.11937E+011 
70250 1.11261E+011 
70300 1.10589E+011 
70350 1.09921E+011 
70400 1.09257E+011 
70450 1.08598E+011 
70500 1.07942E+011 
70550 1.0729E+011 
70600 1.06641E+011 
70650 1.05997E+011 
70700 1.05357E+011 
70750 1.0472E+011 
70800 1.04087E+011 
70850 1.03458E+011 
70900 1.02833E+011 
70950 1.02212E+011 
71000 1.01594E+011 
71050 1.0098E+011 
71100 1.00369E+011 
71150 9.97626E+010 
71200 9.91595E+010 
71250 9.85599E+010 
71300 9.7964E+010 
71350 9.73717E+010 
71400 9.67828E+010 
71450 9.61975E+010 
71500 9.56158E+010 
71550 9.50375E+010 
71600 9.44626E+010 
71650 9.38912E+010 
71700 9.33232E+010 
71750 9.27587E+010 
71800 9.21975E+010 
71850 9.16396E+010 
71900 9.10852E+010 
71950 9.0534E+010 
72000 8.99861E+010 
72050 8.94415E+010 
72100 8.89002E+010 
72150 8.83621E+010 
72200 8.78273E+010 
72250 8.72957E+010 
72300 8.67672E+010 
72350 8.62419E+010 
72400 8.57198E+010 
72450 8.52008E+010 
72500 8.46849E+010 
72550 8.41721E+010 
72600 8.36623E+010 
72650 8.31557E+010 
72700 8.2652E+010 
72750 8.21514E+010 
72800 8.16538E+010 
72850 8.11592E+010 
72900 8.06675E+010 
72950 8.01788E+010 
73000 7.96931E+010 
73050 7.92102E+010 
73100 7.87302E+010 
73150 7.82532E+010 
73200 7.7779E+010 
73250 7.73076E+010 
73300 7.68391E+010 
73350 7.63733E+010 
73400 7.59104E+010 
73450 7.54503E+010 
73500 7.49929E+010 
73550 7.45382E+010 
73600 7.40863E+010 
73650 7.36371E+010 
73700 7.31906E+010 
73750 7.27468E+010 
73800 7.23057E+010 
73850 7.18672E+010 
73900 7.14313E+010 
73950 7.09981E+010 
74000 7.05674E+010 
74050 7.01394E+010 
74100 6.97139E+010 
74150 6.9291E+010 
74200 6.88706E+010 
74250 6.84528E+010 
74300 6.80374E+010 
74350 6.76246E+010 
74400 6.72142E+010 
74450 6.68063E+010 
74500 6.64009E+010 
74550 6.59979E+010 
74600 6.55973E+010 
74650 6.51991E+010 
74700 6.48034E+010 
74750 6.441E+010 
74800 6.4019E+010 
74850 6.36303E+010 
74900 6.32439E+010 
74950 6.28599E+010 
75000 6.24782E+010 
75050 6.20988E+010 
75100 6.17217E+010 
75150 6.13469E+010 
75200 6.09743E+010 
75250 6.06039E+010 
75300 6.02358E+010 
75350 5.98699E+010 
75400 5.95062E+010 
75450 5.91447E+010 
75500 5.87854E+010 
75550 5.84282E+010 
75600 5.80732E+010 
75650 5.77203E+010 
75700 5.73696E+010 
75750 5.70209E+010 
75800 5.66744E+010 
75850 5.63299E+010 
75900 5.59876E+010 
75950 5.56473E+010 
76000 5.5309E+010 
76050 5.49728E+010 
76100 5.46386E+010 
76150 5.43064E+010 
76200 5.39762E+010 
76250 5.3648E+010 
76300 5.33218E+010 
76350 5.29976E+010 
76400 5.26753E+010 
76450 5.23549E+010 
76500 5.20365E+010 
76550 5.172E+010 
76600 5.14055E+010 
76650 5.10928E+010 
76700 5.0782E+010 
76750 5.0473E+010 
76800 5.0166E+010 
76850 4.98608E+010 
76900 4.95574E+010 
76950 4.92558E+010 
77000 4.89561E+010 
77050 4.86582E+010 
77100 4.83621E+010 
77150 4.80678E+010 
77200 4.77752E+010 
77250 4.74844E+010 
77300 4.71954E+010 
77350 4.69081E+010 
77400 4.66226E+010 
77450 4.63387E+010 
77500 4.60566E+010 
77550 4.57762E+010 
77600 4.54975E+010 
77650 4.52205E+010 
77700 4.49451E+010 
77750 4.46714E+010 
77800 4.43994E+010 
77850 4.4129E+010 
77900 4.38602E+010 
77950 4.35931E+010 
78000 4.33275E+010 
78050 4.30636E+010 
78100 4.28013E+010 
78150 4.25406E+010 
78200 4.22814E+010 
78250 4.20238E+010 
78300 4.17677E+010 
78350 4.15132E+010 
78400 4.12603E+010 
78450 4.10089E+010 
78500 4.0759E+010 
78550 4.05106E+010 
78600 4.02637E+010 
78650 4.00183E+010 
78700 3.97743E+010 
78750 3.95319E+010 
78800 3.92909E+010 
78850 3.90514E+010 
78900 3.88133E+010 
78950 3.85767E+010 
79000 3.83415E+010 
79050 3.81077E+010 
79100 3.78753E+010 
79150 3.76444E+010 
79200 3.74148E+010 
79250 3.71866E+010 
79300 3.69599E+010 
79350 3.67344E+010 
79400 3.65104E+010 
79450 3.62877E+010 
79500 3.60663E+010 
79550 3.58463E+010 
79600 3.56276E+010 
79650 3.54103E+010 
79700 3.51942E+010 
79750 3.49795E+010 
79800 3.47661E+010 
79850 3.4554E+010 
79900 3.43431E+010 
79950 3.41335E+010 
80000 3.39252E+010 
80050 3.37182E+010 
80100 3.35124E+010 
80150 3.33078E+010 
80200 3.31045E+010 
80250 3.29024E+010 
80300 3.27016E+010 
80350 3.2502E+010 
80400 3.23035E+010 
80450 3.21063E+010 
80500 3.19103E+010 
80550 3.17155E+010 
80600 3.15218E+010 
80650 3.13293E+010 
80700 3.1138E+010 
80750 3.09478E+010 
80800 3.07588E+010 
80850 3.0571E+010 
80900 3.03843E+010 
80950 3.01987E+010 
81000 3.00142E+010 
81050 2.98309E+010 
81100 2.96486E+010 
81150 2.94675E+010 
81200 2.92875E+010 
81250 2.91085E+010 
81300 2.89307E+010 
81350 2.87539E+010 
81400 2.85782E+010 
81450 2.84036E+010 
81500 2.823E+010 
81550 2.80575E+010 
81600 2.7886E+010 
81650 2.77156E+010 
81700 2.75462E+010 
81750 2.73778E+010 
81800 2.72104E+010 
81850 2.70441E+010 
81900 2.68788E+010 
81950 2.67144E+010 
82000 2.65511E+010 
82050 2.63888E+010 
82100 2.62274E+010 
82150 2.60671E+010 
82200 2.59077E+010 
82250 2.57493E+010 
82300 2.55918E+010 
82350 2.54353E+010 
82400 2.52797E+010 
82450 2.51251E+010 
82500 2.49714E+010 
82550 2.48187E+010 
82600 2.46669E+010 
82650 2.4516E+010 
82700 2.4366E+010 
82750 2.4217E+010 
82800 2.40688E+010 
82850 2.39215E+010 
82900 2.37752E+010 
82950 2.36297E+010 
83000 2.34851E+010 
83050 2.33414E+010 
83100 2.31986E+010 
83150 2.30566E+010 
83200 2.29155E+010 
83250 2.27752E+010 
83300 2.26358E+010 
83350 2.24973E+010 
83400 2.23596E+010 
83450 2.22227E+010 
83500 2.20867E+010 
83550 2.19515E+010 
83600 2.18171E+010 
83650 2.16835E+010 
83700 2.15507E+010 
83750 2.14188E+010 
83800 2.12876E+010 
83850 2.11573E+010 
83900 2.10277E+010 
83950 2.08989E+010 
84000 2.0771E+010 
84050 2.06438E+010 
84100 2.05173E+010 
84150 2.03916E+010 
84200 2.02667E+010 
84250 2.01426E+010 
84300 2.00192E+010 
84350 1.98966E+010 
84400 1.97747E+010 
84450 1.96536E+010 
84500 1.95331E+010 
84550 1.94135E+010 
84600 1.92945E+010 
84650 1.91763E+010 
84700 1.90588E+010 
84750 1.8942E+010 
84800 1.88259E+010 
84850 1.87106E+010 
84900 1.85959E+010 
84950 1.84819E+010 
85000 1.83686E+010 
85050 1.8256E+010 
85100 1.81441E+010 
85150 1.80329E+010 
85200 1.79224E+010 
85250 1.78125E+010 
85300 1.77033E+010 
85350 1.75948E+010 
85400 1.74869E+010 
85450 1.73797E+010 
85500 1.72731E+010 
85550 1.71672E+010 
85600 1.70619E+010 
85650 1.69573E+010 
85700 1.68533E+010 
85750 1.675E+010 
85800 1.66472E+010 
85850 1.65451E+010 
85900 1.64437E+010 
85950 1.63428E+010 
86000 1.62425E+010 
86050 1.61429E+010 
86100 1.60439E+010 
86150 1.59455E+010 
86200 1.58476E+010 
86250 1.57504E+010 
86300 1.56538E+010 
86350 1.55577E+010 
86400 1.54623E+010 
86450 1.53674E+010 
86500 1.52731E+010 
86550 1.51794E+010 
86600 1.50862E+010 
86650 1.49936E+010 
86700 1.49016E+010 
86750 1.48101E+010 
86800 1.47193E+010 
86850 1.46289E+010 
86900 1.45391E+010 
86950 1.44499E+010 
87000 1.43612E+010 
87050 1.4273E+010 
87100 1.41854E+010 
87150 1.40983E+010 
87200 1.40117E+010 
87250 1.39257E+010 
87300 1.38402E+010 
87350 1.37552E+010 
87400 1.36708E+010 
87450 1.35868E+010 
87500 1.35034E+010 
87550 1.34204E+010 
87600 1.3338E+010 
87650 1.32561E+010 
87700 1.31747E+010 
87750 1.30938E+010 
87800 1.30133E+010 
87850 1.29334E+010 
87900 1.2854E+010 
87950 1.2775E+010 
88000 1.26965E+010 
88050 1.26185E+010 
88100 1.2541E+010 
88150 1.24639E+010 
88200 1.23874E+010 
88250 1.23112E+010 
88300 1.22356E+010 
88350 1.21604E+010 
88400 1.20857E+010 
88450 1.20114E+010 
88500 1.19376E+010 
88550 1.18642E+010 
88600 1.17913E+010 
88650 1.17188E+010 
88700 1.16468E+010 
88750 1.15752E+010 
88800 1.15041E+010 
88850 1.14334E+010 
88900 1.13631E+010 
88950 1.12932E+010 
89000 1.12238E+010 
89050 1.11548E+010 
89100 1.10862E+010 
89150 1.10181E+010 
89200 1.09503E+010 
89250 1.0883E+010 
89300 1.08161E+010 
89350 1.07495E+010 
89400 1.06835E+010 
89450 1.06177E+010 
89500 1.05525E+010 
89550 1.04875E+010 
89600 1.04231E+010 
89650 1.03589E+010 
89700 1.02952E+010 
89750 1.02319E+010 
89800 1.0169E+010 
89850 1.01064E+010 
89900 1.00442E+010 
89950 9.98245E+009 
90000 9.92104E+009 
90050 9.86E+009 
90100 9.79934E+009 
90150 9.73905E+009 
90200 9.67913E+009 
90250 9.61957E+009 
90300 9.56038E+009 
90350 9.50155E+009 
90400 9.44308E+009 
90450 9.38497E+009 
90500 9.32721E+009 
90550 9.26981E+009 
90600 9.21275E+009 
90650 9.15605E+009 
90700 9.0997E+009 
90750 9.04369E+009 
90800 8.98802E+009 
90850 8.93269E+009 
90900 8.87771E+009 
90950 8.82305E+009 
91000 8.76874E+009 
91050 8.71475E+009 
91100 8.6611E+009 
91150 8.60777E+009 
91200 8.55478E+009 
91250 8.5021E+009 
91300 8.44975E+009 
91350 8.39772E+009 
91400 8.34601E+009 
91450 8.29461E+009 
91500 8.24353E+009 
91550 8.19276E+009 
91600 8.1423E+009 
91650 8.09216E+009 
91700 8.04232E+009 
91750 7.99278E+009 
91800 7.94355E+009 
91850 7.89462E+009 
91900 7.84599E+009 
91950 7.79766E+009 
92000 7.74962E+009 
92050 7.70188E+009 
92100 7.65443E+009 
92150 7.60727E+009 
92200 7.5604E+009 
92250 7.51382E+009 
92300 7.46752E+009 
92350 7.42151E+009 
92400 7.37578E+009 
92450 7.33033E+009 
92500 7.28515E+009 
92550 7.24026E+009 
92600 7.19564E+009 
92650 7.15129E+009 
92700 7.10722E+009 
92750 7.06341E+009 
92800 7.01988E+009 
92850 6.97661E+009 
92900 6.9336E+009 
92950 6.89087E+009 
93000 6.84839E+009 
93050 6.80617E+009 
93100 6.76421E+009 
93150 6.72251E+009 
93200 6.68106E+009 
93250 6.63987E+009 
93300 6.59894E+009 
93350 6.55825E+009 
93400 6.51781E+009 
93450 6.47762E+009 
93500 6.43768E+009 
93550 6.39798E+009 
93600 6.35852E+009 
93650 6.31931E+009 
93700 6.28034E+009 
93750 6.24161E+009 
93800 6.20311E+009 
93850 6.16485E+009 
93900 6.12683E+009 
93950 6.08904E+009 
94000 6.05148E+009 
94050 6.01415E+009 
94100 5.97705E+009 
94150 5.94018E+009 
94200 5.90354E+009 
94250 5.86712E+009 
94300 5.83092E+009 
94350 5.79495E+009 
94400 5.75919E+009 
94450 5.72366E+009 
94500 5.68834E+009 
94550 5.65324E+009 
94600 5.61836E+009 
94650 5.58369E+009 
94700 5.54923E+009 
94750 5.51499E+009 
94800 5.48095E+009 
94850 5.44713E+009 
94900 5.41351E+009 
94950 5.3801E+009 
95000 5.34689E+009 
95050 5.31389E+009 
95100 5.28109E+009 
95150 5.24849E+009 
95200 5.21609E+009 
95250 5.18389E+009 
95300 5.15189E+009 
95350 5.12009E+009 
95400 5.08848E+009 
95450 5.05706E+009 
95500 5.02584E+009 
95550 4.99481E+009 
95600 4.96397E+009 
95650 4.93332E+009 
95700 4.90286E+009 
95750 4.87259E+009 
95800 4.8425E+009 
95850 4.81259E+009 
95900 4.78288E+009 
95950 4.75334E+009 
96000 4.72398E+009 
96050 4.69481E+009 
96100 4.66581E+009 
96150 4.63699E+009 
96200 4.60835E+009 
96250 4.57989E+009 
96300 4.5516E+009 
96350 4.52348E+009 
96400 4.49554E+009 
96450 4.46777E+009 
96500 4.44017E+009 
96550 4.41274E+009 
96600 4.38548E+009 
96650 4.35838E+009 
96700 4.33146E+009 
96750 4.30469E+009 
96800 4.2781E+009 
96850 4.25166E+009 
96900 4.22539E+009 
96950 4.19928E+009 
97000 4.17333E+009 
97050 4.14755E+009 
97100 4.12191E+009 
97150 4.09644E+009 
97200 4.07112E+009 
97250 4.04596E+009 
97300 4.02096E+009 
97350 3.99611E+009 
97400 3.97141E+009 
97450 3.94686E+009 
97500 3.92246E+009 
97550 3.89822E+009 
97600 3.87412E+009 
97650 3.85017E+009 
97700 3.82637E+009 
97750 3.80272E+009 
97800 3.77921E+009 
97850 3.75584E+009 
97900 3.73262E+009 
97950 3.70954E+009 
98000 3.68661E+009 
98050 3.66381E+009 
98100 3.64116E+009 
98150 3.61864E+009 
98200 3.59627E+009 
98250 3.57403E+009 
98300 3.55193E+009 
98350 3.52996E+009 
98400 3.50813E+009 
98450 3.48644E+009 
98500 3.46487E+009 
98550 3.44344E+009 
98600 3.42215E+009 
98650 3.40098E+009 
98700 3.37994E+009 
98750 3.35904E+009 
98800 3.33826E+009 
98850 3.31761E+009 
98900 3.29709E+009 
98950 3.27669E+009 
99000 3.25642E+009 
99050 3.23627E+009 
99100 3.21625E+009 
99150 3.19635E+009 
99200 3.17658E+009 
99250 3.15692E+009 
99300 3.13739E+009 
99350 3.11798E+009 
99400 3.09868E+009 
99450 3.07951E+009 
99500 3.06045E+009 
99550 3.04151E+009 
99600 3.02269E+009 
99650 3.00399E+009 
99700 2.98539E+009 
99750 2.96692E+009 
99800 2.94856E+009 
99850 2.93031E+009 
99900 2.91217E+009 
99950 2.89415E+009 
100000 2.87623E+009 
