#F U:\Beamline I20\I20-1_EDE\GDA-EDE\power-calculation\Rh-4p25mrad.dat
#C Rh 4.25mrad
#S 1 File written by xplot on Mon Sep 09 11:46:34 2013
#N 2
#L    Photon Energy [eV]  Intens after oe #1
50 0.982476 
100 0.996388 
150 0.995592 
200 0.988401 
250 0.980579 
300 0.961066 
350 0.900207 
400 0.922385 
450 0.929394 
500 0.932392 
550 0.936234 
600 0.937633 
650 0.940533 
700 0.942898 
750 0.944751 
800 0.9462 
850 0.947369 
900 0.948372 
950 0.949296 
1000 0.950142 
1050 0.950982 
1100 0.951738 
1150 0.952386 
1200 0.952962 
1250 0.953479 
1300 0.953933 
1350 0.954352 
1400 0.954743 
1450 0.955103 
1500 0.955486 
1550 0.955914 
1600 0.956299 
1650 0.956656 
1700 0.956985 
1750 0.957317 
1800 0.957653 
1850 0.957969 
1900 0.958258 
1950 0.958513 
2000 0.958746 
2050 0.958966 
2100 0.959191 
2150 0.959399 
2200 0.959588 
2250 0.959752 
2300 0.959898 
2350 0.96001 
2400 0.960094 
2450 0.960148 
2500 0.960156 
2550 0.96011 
2600 0.960003 
2650 0.95982 
2700 0.959536 
2750 0.959098 
2800 0.958427 
2850 0.957391 
2900 0.955635 
2950 0.951737 
3000 0.885199 
3050 0.846634 
3100 0.855211 
3150 0.775253 
3200 0.832216 
3250 0.841461 
3300 0.846691 
3350 0.849471 
3400 0.840216 
3450 0.838179 
3500 0.844407 
3550 0.848527 
3600 0.851783 
3650 0.854584 
3700 0.857055 
3750 0.859279 
3800 0.861309 
3850 0.863182 
3900 0.864882 
3950 0.86647 
4000 0.867965 
4050 0.86938 
4100 0.870722 
4150 0.871968 
4200 0.873163 
4250 0.874314 
4300 0.875416 
4350 0.876448 
4400 0.877453 
4450 0.878434 
4500 0.879354 
4550 0.880245 
4600 0.881121 
4650 0.881955 
4700 0.882759 
4750 0.883554 
4800 0.884311 
4850 0.885044 
4900 0.885774 
4950 0.886461 
5000 0.887139 
5050 0.887811 
5100 0.888441 
5150 0.889075 
5200 0.889683 
5250 0.890275 
5300 0.890868 
5350 0.891422 
5400 0.891986 
5450 0.892521 
5500 0.893051 
5550 0.893572 
5600 0.894072 
5650 0.894578 
5700 0.895049 
5750 0.895535 
5800 0.895987 
5850 0.896449 
5900 0.896886 
5950 0.897326 
6000 0.897749 
6050 0.898169 
6100 0.898575 
6150 0.898978 
6200 0.899369 
6250 0.899755 
6300 0.900132 
6350 0.900503 
6400 0.900863 
6450 0.901221 
6500 0.901566 
6550 0.901912 
6600 0.902241 
6650 0.902576 
6700 0.902889 
6750 0.903216 
6800 0.903513 
6850 0.903827 
6900 0.904114 
6950 0.904411 
7000 0.904691 
7050 0.90497 
7100 0.905246 
7150 0.905509 
7200 0.905781 
7250 0.906028 
7300 0.906289 
7350 0.906527 
7400 0.90677 
7450 0.907007 
7500 0.907233 
7550 0.90747 
7600 0.907678 
7650 0.9079 
7700 0.908108 
7750 0.908312 
7800 0.908523 
7850 0.90871 
7900 0.908908 
7950 0.909093 
8000 0.909272 
8050 0.909461 
8100 0.909623 
8150 0.909795 
8200 0.909962 
8250 0.910115 
8300 0.910279 
8350 0.910423 
8400 0.910569 
8450 0.910721 
8500 0.910847 
8550 0.910983 
8600 0.911115 
8650 0.911232 
8700 0.911358 
8750 0.911473 
8800 0.911581 
8850 0.911697 
8900 0.911795 
8950 0.911892 
9000 0.911997 
9050 0.912078 
9100 0.912163 
9150 0.912255 
9200 0.912322 
9250 0.912394 
9300 0.912473 
9350 0.912526 
9400 0.912585 
9450 0.912651 
9500 0.912691 
9550 0.912738 
9600 0.91279 
9650 0.912818 
9700 0.91285 
9750 0.912888 
9800 0.912903 
9850 0.912919 
9900 0.91294 
9950 0.912946 
10000 0.912947 
10050 0.912953 
10100 0.91295 
10150 0.912934 
10200 0.912923 
10250 0.91291 
10300 0.912877 
10350 0.912849 
10400 0.912824 
10450 0.912776 
10500 0.912729 
10550 0.912685 
10600 0.912629 
10650 0.912562 
10700 0.912498 
10750 0.912434 
10800 0.912347 
10850 0.912262 
10900 0.912179 
10950 0.912081 
11000 0.911974 
11050 0.911869 
11100 0.911762 
11150 0.911632 
11200 0.911503 
11250 0.911375 
11300 0.911233 
11350 0.911079 
11400 0.910925 
11450 0.910772 
11500 0.910594 
11550 0.910412 
11600 0.910229 
11650 0.910042 
11700 0.909831 
11750 0.909618 
11800 0.909404 
11850 0.909177 
11900 0.908932 
11950 0.908685 
12000 0.908435 
12050 0.908166 
12100 0.907882 
12150 0.907595 
12200 0.907304 
12250 0.906989 
12300 0.906662 
12350 0.906329 
12400 0.905991 
12450 0.905626 
12500 0.905248 
12550 0.904862 
12600 0.904469 
12650 0.904048 
12700 0.90361 
12750 0.903164 
12800 0.902707 
12850 0.902222 
12900 0.901715 
12950 0.901196 
13000 0.900663 
13050 0.900103 
13100 0.899515 
13150 0.89891 
13200 0.898288 
13250 0.89764 
13300 0.896952 
13350 0.896243 
13400 0.895512 
13450 0.894757 
13500 0.893948 
13550 0.893112 
13600 0.892247 
13650 0.89135 
13700 0.890401 
13750 0.889405 
13800 0.88837 
13850 0.887293 
13900 0.886164 
13950 0.884964 
14000 0.883711 
14050 0.8824 
14100 0.881027 
14150 0.879565 
14200 0.87802 
14250 0.876396 
14300 0.874683 
14350 0.87287 
14400 0.870924 
14450 0.868861 
14500 0.866669 
14550 0.864334 
14600 0.86182 
14650 0.85911 
14700 0.856199 
14750 0.85306 
14800 0.849662 
14850 0.845939 
14900 0.841867 
14950 0.837401 
15000 0.832473 
15050 0.827 
15100 0.820839 
15150 0.813898 
15200 0.806007 
15250 0.796948 
15300 0.786424 
15350 0.774018 
15400 0.759263 
15450 0.741508 
15500 0.719977 
15550 0.693905 
15600 0.66294 
15650 0.627846 
15700 0.590597 
15750 0.553624 
15800 0.518732 
15850 0.486755 
15900 0.457856 
15950 0.431844 
16000 0.408407 
16050 0.387219 
16100 0.367979 
16150 0.350439 
16200 0.33438 
16250 0.319617 
16300 0.305993 
16350 0.293371 
16400 0.281645 
16450 0.270719 
16500 0.260513 
16550 0.250954 
16600 0.241978 
16650 0.233533 
16700 0.225574 
16750 0.218059 
16800 0.210952 
16850 0.204218 
16900 0.197826 
16950 0.191754 
17000 0.185979 
17050 0.180479 
17100 0.175235 
17150 0.170226 
17200 0.16544 
17250 0.160863 
17300 0.156482 
17350 0.152284 
17400 0.148259 
17450 0.144393 
17500 0.14068 
17550 0.137113 
17600 0.133682 
17650 0.13038 
17700 0.127199 
17750 0.124132 
17800 0.121176 
17850 0.118325 
17900 0.115573 
17950 0.112915 
18000 0.110345 
18050 0.107861 
18100 0.105458 
18150 0.103134 
18200 0.100885 
18250 0.0987067 
18300 0.0965937 
18350 0.0945464 
18400 0.0925617 
18450 0.0906372 
18500 0.0887704 
18550 0.0869579 
18600 0.0851959 
18650 0.083485 
18700 0.0818232 
18750 0.0802086 
18800 0.0786392 
18850 0.0771127 
18900 0.0756253 
18950 0.0741786 
19000 0.072771 
19050 0.071401 
19100 0.0700674 
19150 0.0687682 
19200 0.0674998 
19250 0.0662641 
19300 0.06506 
19350 0.0638865 
19400 0.0627426 
19450 0.0616271 
19500 0.0605355 
19550 0.0594705 
19600 0.0584314 
19650 0.0574175 
19700 0.0564279 
19750 0.0554618 
19800 0.0545157 
19850 0.0535904 
19900 0.0526866 
19950 0.0518037 
20000 0.0509411 
20050 0.0500982 
20100 0.0492731 
20150 0.048463 
20200 0.0476711 
20250 0.0468968 
20300 0.0461396 
20350 0.045399 
20400 0.0446745 
20450 0.0439616 
20500 0.0432628 
20550 0.042579 
20600 0.0419097 
20650 0.0412547 
20700 0.0406134 
20750 0.0399845 
20800 0.0393632 
20850 0.0387549 
20900 0.0381591 
20950 0.0375756 
21000 0.037004 
21050 0.036444 
21100 0.0358917 
21150 0.0353462 
21200 0.0348116 
21250 0.0342878 
21300 0.0337744 
21350 0.0332712 
21400 0.0327778 
21450 0.0322876 
21500 0.0318031 
21550 0.0313282 
21600 0.0308626 
21650 0.030406 
21700 0.0299582 
21750 0.0295191 
21800 0.0290779 
21850 0.0286408 
21900 0.0282123 
21950 0.027792 
22000 0.0273797 
22050 0.0269753 
22100 0.0265786 
22150 0.0261732 
22200 0.0257675 
22250 0.0253697 
22300 0.0249796 
22350 0.024597 
22400 0.0242219 
22450 0.0238538 
22500 0.0234657 
22550 0.0230594 
22600 0.0226615 
22650 0.0222719 
22700 0.0218903 
22750 0.0215165 
22800 0.0211504 
22850 0.0206769 
22900 0.0198547 
22950 0.0190641 
23000 0.0183038 
23050 0.0175726 
23100 0.0168692 
23150 0.0161924 
23200 0.0155411 
23250 0.0116383 
23300 0.0124726 
23350 0.0133411 
23400 0.0142445 
23450 0.0151834 
23500 0.0161584 
23550 0.0171703 
23600 0.0178288 
23650 0.0177416 
23700 0.0176551 
23750 0.0175692 
23800 0.0174839 
23850 0.0173993 
23900 0.0173153 
23950 0.0172319 
24000 0.0171183 
24050 0.0169936 
24100 0.0168702 
24150 0.0167481 
24200 0.0166273 
24250 0.0165077 
24300 0.0163894 
24350 0.0162724 
24400 0.0161406 
24450 0.0160097 
24500 0.0158803 
24550 0.0157524 
24600 0.0156259 
24650 0.0155009 
24700 0.0153773 
24750 0.0152544 
24800 0.015125 
24850 0.0149972 
24900 0.0148708 
24950 0.014746 
25000 0.0146225 
25050 0.0145006 
25100 0.01438 
25150 0.0142604 
25200 0.0141376 
25250 0.0140162 
25300 0.0138962 
25350 0.0137776 
25400 0.0136604 
25450 0.0135446 
25500 0.0134301 
25550 0.0133169 
25600 0.013202 
25650 0.0130882 
25700 0.0129758 
25750 0.0128646 
25800 0.0127548 
25850 0.0126462 
25900 0.0125389 
25950 0.0124328 
26000 0.0123264 
26050 0.0122206 
26100 0.0121159 
26150 0.0120125 
26200 0.0119103 
26250 0.0118092 
26300 0.0117093 
26350 0.0116105 
26400 0.0115124 
26450 0.0114143 
26500 0.0113173 
26550 0.0112213 
26600 0.0111265 
26650 0.0110328 
26700 0.0109401 
26750 0.0108485 
26800 0.0107578 
26850 0.0106674 
26900 0.0105776 
26950 0.0104888 
27000 0.0104011 
27050 0.0103143 
27100 0.0102285 
27150 0.0101436 
27200 0.0100597 
27250 0.00997665 
27300 0.00989369 
27350 0.00981165 
27400 0.0097305 
27450 0.00965025 
27500 0.00957089 
27550 0.00949238 
27600 0.00941474 
27650 0.00933794 
27700 0.00926179 
27750 0.00918596 
27800 0.00911096 
27850 0.00903676 
27900 0.00896336 
27950 0.00889076 
28000 0.00881893 
28050 0.00874787 
28100 0.00867757 
28150 0.00860786 
28200 0.00853852 
28250 0.00846992 
28300 0.00840205 
28350 0.00833489 
28400 0.00826845 
28450 0.0082027 
28500 0.00813764 
28550 0.00807326 
28600 0.00800948 
28650 0.00794604 
28700 0.00788326 
28750 0.00782113 
28800 0.00775965 
28850 0.0076988 
28900 0.00763858 
28950 0.00757898 
29000 0.00751999 
29050 0.00746161 
29100 0.00740377 
29150 0.00734651 
29200 0.00728984 
29250 0.00723373 
29300 0.0071782 
29350 0.00712323 
29400 0.00706882 
29450 0.00701494 
29500 0.00696161 
29550 0.00690792 
29600 0.00685405 
29650 0.00680073 
29700 0.00674795 
29750 0.0066957 
29800 0.00664398 
29850 0.00659277 
29900 0.00654208 
29950 0.00649189 
30000 0.00644221 
30050 0.00639533 
30100 0.0063489 
30150 0.00630141 
30200 0.00625439 
30250 0.00620776 
30300 0.00616159 
30350 0.00611583 
30400 0.00607051 
30450 0.0060256 
30500 0.00598113 
30550 0.00593704 
30600 0.00589337 
30650 0.00585009 
30700 0.00580722 
30750 0.00576472 
30800 0.00572262 
30850 0.00568091 
30900 0.00563959 
30950 0.00559863 
31000 0.00555805 
31050 0.00551784 
31100 0.005478 
31150 0.0054385 
31200 0.00539937 
31250 0.00536059 
31300 0.00532216 
31350 0.00528409 
31400 0.00524636 
31450 0.00520898 
31500 0.00517195 
31550 0.00513521 
31600 0.00509882 
31650 0.00506274 
31700 0.00502698 
31750 0.00499153 
31800 0.0049564 
31850 0.00492157 
31900 0.00488706 
31950 0.00485282 
32000 0.00481889 
32050 0.00478527 
32100 0.00475196 
32150 0.00471891 
32200 0.00468617 
32250 0.00465371 
32300 0.00462155 
32350 0.00458965 
32400 0.00455803 
32450 0.00452669 
32500 0.0044956 
32550 0.0044648 
32600 0.00443426 
32650 0.00440396 
32700 0.00437393 
32750 0.00434417 
32800 0.00431466 
32850 0.00428539 
32900 0.00425637 
32950 0.00422761 
33000 0.0041991 
33050 0.00417081 
33100 0.00414277 
33150 0.00411497 
33200 0.00408741 
33250 0.00406008 
33300 0.00403298 
33350 0.00400611 
33400 0.00397948 
33450 0.00395305 
33500 0.00392686 
33550 0.00390088 
33600 0.00387513 
33650 0.00384957 
33700 0.00382424 
33750 0.00379912 
33800 0.00377421 
33850 0.0037495 
33900 0.003725 
33950 0.00370071 
34000 0.00367661 
34050 0.00365272 
34100 0.00362903 
34150 0.00360551 
34200 0.00358218 
34250 0.00355906 
34300 0.00353612 
34350 0.00351336 
34400 0.00349078 
34450 0.0034684 
34500 0.0034462 
34550 0.00342417 
34600 0.00340232 
34650 0.00338065 
34700 0.00335916 
34750 0.00333783 
34800 0.00331668 
34850 0.00329571 
34900 0.0032749 
34950 0.00325425 
35000 0.00323377 
35050 0.00321346 
35100 0.00319331 
35150 0.0031733 
35200 0.00315345 
35250 0.00313377 
35300 0.00311424 
35350 0.00309485 
35400 0.00307562 
35450 0.00305654 
35500 0.00303761 
35550 0.00301882 
35600 0.00300018 
35650 0.00298169 
35700 0.00296335 
35750 0.00294513 
35800 0.00292706 
35850 0.00290913 
35900 0.00289134 
35950 0.00287369 
36000 0.00285617 
36050 0.00283879 
36100 0.00282154 
36150 0.00280443 
36200 0.00278744 
36250 0.00277059 
36300 0.00275387 
36350 0.00273726 
36400 0.00272079 
36450 0.00270444 
36500 0.00268822 
36550 0.00267211 
36600 0.00265613 
36650 0.00264027 
36700 0.00262452 
36750 0.0026089 
36800 0.0025934 
36850 0.00257801 
36900 0.00256274 
36950 0.00254758 
37000 0.00253253 
37050 0.00251759 
37100 0.00250276 
37150 0.00248805 
37200 0.00247344 
37250 0.00245895 
37300 0.00244456 
37350 0.00243027 
37400 0.00241608 
37450 0.00240201 
37500 0.00238803 
37550 0.00237416 
37600 0.00236039 
37650 0.00234672 
37700 0.00233315 
37750 0.00231968 
37800 0.00230632 
37850 0.00229304 
37900 0.00227986 
37950 0.00226677 
38000 0.00225378 
38050 0.00224088 
38100 0.00222808 
38150 0.00221536 
38200 0.00220275 
38250 0.00219022 
38300 0.00217778 
38350 0.00216543 
38400 0.00215318 
38450 0.00214101 
38500 0.00212893 
38550 0.00211692 
38600 0.002105 
38650 0.00209317 
38700 0.00208142 
38750 0.00206976 
38800 0.00205818 
38850 0.00204668 
38900 0.00203527 
38950 0.00202393 
39000 0.00201268 
39050 0.0020015 
39100 0.0019904 
39150 0.00197937 
39200 0.00196843 
39250 0.00195756 
39300 0.00194677 
39350 0.00193605 
39400 0.00192541 
39450 0.00191484 
39500 0.00190435 
39550 0.00189392 
39600 0.00188357 
39650 0.00187329 
39700 0.00186308 
39750 0.00185294 
39800 0.00184287 
39850 0.00183287 
39900 0.00182294 
39950 0.00181308 
40000 0.00180329 
40050 0.00179356 
40100 0.00178389 
40150 0.00177429 
40200 0.00176476 
40250 0.00175529 
40300 0.00174589 
40350 0.00173655 
40400 0.00172727 
40450 0.00171805 
40500 0.0017089 
40550 0.00169981 
40600 0.00169078 
40650 0.00168181 
40700 0.0016729 
40750 0.00166405 
40800 0.00165526 
40850 0.00164652 
40900 0.00163785 
40950 0.00162923 
41000 0.00162067 
41050 0.00161217 
41100 0.00160372 
41150 0.00159533 
41200 0.001587 
41250 0.00157872 
41300 0.00157049 
41350 0.00156232 
41400 0.0015542 
41450 0.00154614 
41500 0.00153813 
41550 0.00153017 
41600 0.00152226 
41650 0.0015144 
41700 0.00150659 
41750 0.00149884 
41800 0.00149113 
41850 0.00148348 
41900 0.00147587 
41950 0.00146832 
42000 0.00146081 
42050 0.00145335 
42100 0.00144595 
42150 0.00143859 
42200 0.00143127 
42250 0.00142401 
42300 0.00141679 
42350 0.00140961 
42400 0.00140248 
42450 0.0013954 
42500 0.00138836 
42550 0.00138136 
42600 0.00137442 
42650 0.00136751 
42700 0.00136065 
42750 0.00135383 
42800 0.00134706 
42850 0.00134033 
42900 0.00133364 
42950 0.001327 
43000 0.00132039 
43050 0.00131383 
43100 0.0013073 
43150 0.00130082 
43200 0.00129437 
43250 0.00128797 
43300 0.00128161 
43350 0.00127529 
43400 0.001269 
43450 0.00126276 
43500 0.00125655 
43550 0.00125039 
43600 0.00124426 
43650 0.00123817 
43700 0.00123212 
43750 0.0012261 
43800 0.00122013 
43850 0.00121418 
43900 0.00120827 
43950 0.0012024 
44000 0.00119657 
44050 0.00119077 
44100 0.00118501 
44150 0.00117928 
44200 0.00117359 
44250 0.00116793 
44300 0.00116231 
44350 0.00115672 
44400 0.00115116 
44450 0.00114564 
44500 0.00114015 
44550 0.0011347 
44600 0.00112927 
44650 0.00112388 
44700 0.00111852 
44750 0.0011132 
44800 0.0011079 
44850 0.00110264 
44900 0.00109741 
44950 0.00109221 
45000 0.00108705 
45050 0.00108191 
45100 0.0010768 
45150 0.00107173 
45200 0.00106668 
45250 0.00106167 
45300 0.00105668 
45350 0.00105172 
45400 0.00104679 
45450 0.00104189 
45500 0.00103702 
45550 0.00103218 
45600 0.00102737 
45650 0.00102258 
45700 0.00101783 
45750 0.0010131 
45800 0.0010084 
45850 0.00100372 
45900 0.000999076 
45950 0.000994457 
46000 0.000989865 
46050 0.000985298 
46100 0.000980758 
46150 0.000976244 
46200 0.000971756 
46250 0.000967294 
46300 0.000962858 
46350 0.000958448 
46400 0.000954064 
46450 0.000949705 
46500 0.000945371 
46550 0.000941061 
46600 0.000936775 
46650 0.000932515 
46700 0.000928279 
46750 0.000924067 
46800 0.000919879 
46850 0.000915716 
46900 0.000911576 
46950 0.00090746 
47000 0.000903367 
47050 0.000899297 
47100 0.000895249 
47150 0.000891225 
47200 0.000887224 
47250 0.000883245 
47300 0.000879289 
47350 0.000875355 
47400 0.000871443 
47450 0.000867554 
47500 0.000863686 
47550 0.000859841 
47600 0.000856016 
47650 0.000852213 
47700 0.000848432 
47750 0.000844671 
47800 0.000840932 
47850 0.000837214 
47900 0.000833516 
47950 0.000829839 
48000 0.000826182 
48050 0.000822545 
48100 0.000818928 
48150 0.00081533 
48200 0.000811753 
48250 0.000808195 
48300 0.000804658 
48350 0.000801139 
48400 0.000797641 
48450 0.000794161 
48500 0.000790701 
48550 0.000787259 
48600 0.000783837 
48650 0.000780433 
48700 0.000777049 
48750 0.000773682 
48800 0.000770334 
48850 0.000767005 
48900 0.000763693 
48950 0.0007604 
49000 0.000757124 
49050 0.000753865 
49100 0.000750624 
49150 0.0007474 
49200 0.000744194 
49250 0.000741005 
49300 0.000737833 
49350 0.000734679 
49400 0.000731541 
49450 0.000728421 
49500 0.000725317 
49550 0.00072223 
49600 0.000719159 
49650 0.000716106 
49700 0.000713068 
49750 0.000710047 
49800 0.000707041 
49850 0.000704052 
49900 0.000701079 
49950 0.000698122 
50000 0.00069518 
50050 0.000692254 
50100 0.000689342 
50150 0.000686446 
50200 0.000683566 
50250 0.000680701 
50300 0.000677851 
50350 0.000675016 
50400 0.000672196 
50450 0.000669391 
50500 0.0006666 
50550 0.000663825 
50600 0.000661064 
50650 0.000658317 
50700 0.000655585 
50750 0.000652867 
50800 0.000650163 
50850 0.000647474 
50900 0.000644798 
50950 0.000642136 
51000 0.000639489 
51050 0.000636854 
51100 0.000634233 
51150 0.000631626 
51200 0.000629032 
51250 0.000626451 
51300 0.000623884 
51350 0.00062133 
51400 0.00061879 
51450 0.000616262 
51500 0.000613748 
51550 0.000611246 
51600 0.000608758 
51650 0.000606282 
51700 0.000603818 
51750 0.000601368 
51800 0.000598929 
51850 0.000596504 
51900 0.000594091 
51950 0.00059169 
52000 0.000589301 
52050 0.000586924 
52100 0.000584559 
52150 0.000582206 
52200 0.000579865 
52250 0.000577536 
52300 0.000575218 
52350 0.000572913 
52400 0.000570619 
52450 0.000568336 
52500 0.000566065 
52550 0.000563806 
52600 0.000561558 
52650 0.000559321 
52700 0.000557096 
52750 0.000554881 
52800 0.000552677 
52850 0.000550486 
52900 0.000548304 
52950 0.000546134 
53000 0.000543974 
53050 0.000541824 
53100 0.000539686 
53150 0.000537558 
53200 0.000535441 
53250 0.000533334 
53300 0.000531238 
53350 0.000529152 
53400 0.000527076 
53450 0.000525011 
53500 0.000522955 
53550 0.00052091 
53600 0.000518875 
53650 0.00051685 
53700 0.000514835 
53750 0.00051283 
53800 0.000510835 
53850 0.000508849 
53900 0.000506874 
53950 0.000504907 
54000 0.000502951 
54050 0.000501003 
54100 0.000499065 
54150 0.000497137 
54200 0.000495217 
54250 0.000493307 
54300 0.000491407 
54350 0.000489515 
54400 0.000487633 
54450 0.00048576 
54500 0.000483896 
54550 0.000482041 
54600 0.000480195 
54650 0.000478358 
54700 0.000476529 
54750 0.00047471 
54800 0.000472899 
54850 0.000471097 
54900 0.000469303 
54950 0.000467519 
55000 0.000465742 
55050 0.000463974 
55100 0.000462215 
55150 0.000460464 
55200 0.000458721 
55250 0.000456987 
55300 0.000455261 
55350 0.000453543 
55400 0.000451834 
55450 0.000450132 
55500 0.000448438 
55550 0.000446753 
55600 0.000445075 
55650 0.000443406 
55700 0.000441744 
55750 0.00044009 
55800 0.000438444 
55850 0.000436806 
55900 0.000435175 
55950 0.000433552 
56000 0.000431937 
56050 0.000430329 
56100 0.000428728 
56150 0.000427135 
56200 0.000425549 
56250 0.000423971 
56300 0.0004224 
56350 0.000420836 
56400 0.00041928 
56450 0.000417731 
56500 0.000416189 
56550 0.000414654 
56600 0.000413126 
56650 0.000411605 
56700 0.000410092 
56750 0.000408585 
56800 0.000407086 
56850 0.000405593 
56900 0.000404107 
56950 0.000402628 
57000 0.000401156 
57050 0.000399691 
57100 0.000398232 
57150 0.00039678 
57200 0.000395335 
57250 0.000393896 
57300 0.000392464 
57350 0.000391039 
57400 0.000389619 
57450 0.000388207 
57500 0.000386801 
57550 0.000385401 
57600 0.000384008 
57650 0.00038262 
57700 0.00038124 
57750 0.000379865 
57800 0.000378496 
57850 0.000377134 
57900 0.000375778 
57950 0.000374428 
58000 0.000373084 
58050 0.000371747 
58100 0.000370415 
58150 0.000369089 
58200 0.000367769 
58250 0.000366456 
58300 0.000365148 
58350 0.000363846 
58400 0.00036255 
58450 0.000361259 
58500 0.000359975 
58550 0.000358696 
58600 0.000357422 
58650 0.000356155 
58700 0.000354893 
58750 0.000353637 
58800 0.000352386 
58850 0.000351141 
58900 0.000349901 
58950 0.000348667 
59000 0.000347438 
59050 0.000346215 
59100 0.000344997 
59150 0.000343785 
59200 0.000342578 
59250 0.000341376 
59300 0.00034018 
59350 0.000338989 
59400 0.000337803 
59450 0.000336622 
59500 0.000335447 
59550 0.000334276 
59600 0.000333111 
59650 0.000331951 
59700 0.000330796 
59750 0.000329646 
59800 0.000328501 
59850 0.000327361 
59900 0.000326226 
59950 0.000325096 
60000 0.000323971 
60050 0.00032285 
60100 0.000321735 
60150 0.000320624 
60200 0.000319518 
60250 0.000318417 
60300 0.00031732 
60350 0.000316229 
60400 0.000315142 
60450 0.000314059 
60500 0.000312982 
60550 0.000311909 
60600 0.00031084 
60650 0.000309777 
60700 0.000308718 
60750 0.000307663 
60800 0.000306613 
60850 0.000305567 
60900 0.000304526 
60950 0.00030349 
61000 0.000302457 
61050 0.00030143 
61100 0.000300406 
61150 0.000299387 
61200 0.000298373 
61250 0.000297362 
61300 0.000296356 
61350 0.000295355 
61400 0.000294357 
61450 0.000293364 
61500 0.000292375 
61550 0.00029139 
61600 0.000290409 
61650 0.000289433 
61700 0.00028846 
61750 0.000287492 
61800 0.000286528 
61850 0.000285568 
61900 0.000284612 
61950 0.000283659 
62000 0.000282711 
62050 0.000281767 
62100 0.000280827 
62150 0.000279891 
62200 0.000278959 
62250 0.00027803 
62300 0.000277106 
62350 0.000276185 
62400 0.000275268 
62450 0.000274355 
62500 0.000273446 
62550 0.000272541 
62600 0.000271639 
62650 0.000270741 
62700 0.000269847 
62750 0.000268956 
62800 0.00026807 
62850 0.000267187 
62900 0.000266307 
62950 0.000265431 
63000 0.000264559 
63050 0.00026369 
63100 0.000262826 
63150 0.000261964 
63200 0.000261106 
63250 0.000260252 
63300 0.000259401 
63350 0.000258554 
63400 0.00025771 
63450 0.000256869 
63500 0.000256032 
63550 0.000255198 
63600 0.000254368 
63650 0.000253542 
63700 0.000252718 
63750 0.000251898 
63800 0.000251081 
63850 0.000250268 
63900 0.000249458 
63950 0.000248651 
64000 0.000247848 
64050 0.000247047 
64100 0.00024625 
64150 0.000245457 
64200 0.000244666 
64250 0.000243879 
64300 0.000243095 
64350 0.000242314 
64400 0.000241536 
64450 0.000240761 
64500 0.000239989 
64550 0.000239221 
64600 0.000238455 
64650 0.000237693 
64700 0.000236934 
64750 0.000236178 
64800 0.000235424 
64850 0.000234674 
64900 0.000233927 
64950 0.000233183 
65000 0.000232441 
65050 0.000231703 
65100 0.000230968 
65150 0.000230236 
65200 0.000229506 
65250 0.00022878 
65300 0.000228056 
65350 0.000227335 
65400 0.000226617 
65450 0.000225902 
65500 0.00022519 
65550 0.00022448 
65600 0.000223774 
65650 0.00022307 
65700 0.000222369 
65750 0.000221671 
65800 0.000220975 
65850 0.000220282 
65900 0.000219592 
65950 0.000218905 
66000 0.00021822 
66050 0.000217538 
66100 0.000216859 
66150 0.000216182 
66200 0.000215508 
66250 0.000214837 
66300 0.000214168 
66350 0.000213502 
66400 0.000212838 
66450 0.000212177 
66500 0.000211519 
66550 0.000210863 
66600 0.00021021 
66650 0.000209559 
66700 0.000208911 
66750 0.000208265 
66800 0.000207622 
66850 0.000206981 
66900 0.000206343 
66950 0.000205707 
67000 0.000205074 
67050 0.000204443 
67100 0.000203815 
67150 0.000203189 
67200 0.000202565 
67250 0.000201944 
67300 0.000201325 
67350 0.000200709 
67400 0.000200095 
67450 0.000199483 
67500 0.000198874 
67550 0.000198267 
67600 0.000197662 
67650 0.00019706 
67700 0.00019646 
67750 0.000195862 
67800 0.000195266 
67850 0.000194673 
67900 0.000194082 
67950 0.000193493 
68000 0.000192907 
68050 0.000192323 
68100 0.000191741 
68150 0.000191161 
68200 0.000190583 
68250 0.000190008 
68300 0.000189435 
68350 0.000188863 
68400 0.000188295 
68450 0.000187728 
68500 0.000187163 
68550 0.000186601 
68600 0.00018604 
68650 0.000185482 
68700 0.000184926 
68750 0.000184372 
68800 0.00018382 
68850 0.00018327 
68900 0.000182722 
68950 0.000182176 
69000 0.000181632 
69050 0.000181091 
69100 0.000180551 
69150 0.000180013 
69200 0.000179478 
69250 0.000178944 
69300 0.000178412 
69350 0.000177882 
69400 0.000177355 
69450 0.000176829 
69500 0.000176305 
69550 0.000175783 
69600 0.000175263 
69650 0.000174745 
69700 0.000174229 
69750 0.000173715 
69800 0.000173203 
69850 0.000172692 
69900 0.000172184 
69950 0.000171677 
70000 0.000171173 
70050 0.00017067 
70100 0.000170169 
70150 0.00016967 
70200 0.000169172 
70250 0.000168677 
70300 0.000168183 
70350 0.000167692 
70400 0.000167202 
70450 0.000166713 
70500 0.000166227 
70550 0.000165742 
70600 0.000165259 
70650 0.000164778 
70700 0.000164299 
70750 0.000163821 
70800 0.000163346 
70850 0.000162871 
70900 0.000162399 
70950 0.000161928 
71000 0.000161459 
71050 0.000160992 
71100 0.000160526 
71150 0.000160062 
71200 0.0001596 
71250 0.00015914 
71300 0.000158681 
71350 0.000158224 
71400 0.000157768 
71450 0.000157314 
71500 0.000156862 
71550 0.000156411 
71600 0.000155962 
71650 0.000155515 
71700 0.000155069 
71750 0.000154625 
71800 0.000154182 
71850 0.000153741 
71900 0.000153301 
71950 0.000152863 
72000 0.000152427 
72050 0.000151992 
72100 0.000151559 
72150 0.000151128 
72200 0.000150698 
72250 0.000150269 
72300 0.000149842 
72350 0.000149416 
72400 0.000148992 
72450 0.00014857 
72500 0.000148149 
72550 0.000147729 
72600 0.000147311 
72650 0.000146895 
72700 0.00014648 
72750 0.000146066 
72800 0.000145654 
72850 0.000145244 
72900 0.000144834 
72950 0.000144427 
73000 0.00014402 
73050 0.000143615 
73100 0.000143212 
73150 0.00014281 
73200 0.000142409 
73250 0.00014201 
73300 0.000141612 
73350 0.000141216 
73400 0.000140821 
73450 0.000140427 
73500 0.000140035 
73550 0.000139644 
73600 0.000139254 
73650 0.000138866 
73700 0.000138479 
73750 0.000138094 
73800 0.00013771 
73850 0.000137327 
73900 0.000136946 
73950 0.000136566 
74000 0.000136187 
74050 0.000135809 
74100 0.000135433 
74150 0.000135058 
74200 0.000134685 
74250 0.000134312 
74300 0.000133942 
74350 0.000133572 
74400 0.000133203 
74450 0.000132836 
74500 0.00013247 
74550 0.000132106 
74600 0.000131742 
74650 0.00013138 
74700 0.000131019 
74750 0.00013066 
74800 0.000130301 
74850 0.000129944 
74900 0.000129588 
74950 0.000129234 
75000 0.00012888 
75050 0.000128528 
75100 0.000128177 
75150 0.000127827 
75200 0.000127479 
75250 0.000127131 
75300 0.000126785 
75350 0.00012644 
75400 0.000126096 
75450 0.000125753 
75500 0.000125412 
75550 0.000125072 
75600 0.000124732 
75650 0.000124394 
75700 0.000124057 
75750 0.000123722 
75800 0.000123387 
75850 0.000123053 
75900 0.000122721 
75950 0.00012239 
76000 0.00012206 
76050 0.000121731 
76100 0.000121403 
76150 0.000121076 
76200 0.00012075 
76250 0.000120426 
76300 0.000120102 
76350 0.00011978 
76400 0.000119458 
76450 0.000119138 
76500 0.000118819 
76550 0.000118501 
76600 0.000118184 
76650 0.000117868 
76700 0.000117553 
76750 0.000117239 
76800 0.000116926 
76850 0.000116615 
76900 0.000116304 
76950 0.000115994 
77000 0.000115686 
77050 0.000115378 
77100 0.000115071 
77150 0.000114766 
77200 0.000114461 
77250 0.000114158 
77300 0.000113855 
77350 0.000113554 
77400 0.000113253 
77450 0.000112954 
77500 0.000112655 
77550 0.000112358 
77600 0.000112061 
77650 0.000111766 
77700 0.000111471 
77750 0.000111177 
77800 0.000110885 
77850 0.000110593 
77900 0.000110302 
77950 0.000110013 
78000 0.000109724 
78050 0.000109436 
78100 0.000109149 
78150 0.000108863 
78200 0.000108578 
78250 0.000108294 
78300 0.000108011 
78350 0.000107729 
78400 0.000107447 
78450 0.000107167 
78500 0.000106887 
78550 0.000106609 
78600 0.000106331 
78650 0.000106055 
78700 0.000105779 
78750 0.000105504 
78800 0.00010523 
78850 0.000104957 
78900 0.000104684 
78950 0.000104413 
79000 0.000104142 
79050 0.000103873 
79100 0.000103604 
79150 0.000103336 
79200 0.000103069 
79250 0.000102803 
79300 0.000102538 
79350 0.000102273 
79400 0.00010201 
79450 0.000101747 
79500 0.000101485 
79550 0.000101224 
79600 0.000100964 
79650 0.000100705 
79700 0.000100446 
79750 0.000100189 
79800 9.99316E-005 
79850 9.96756E-005 
79900 9.94204E-005 
79950 9.9166E-005 
80000 9.89125E-005 
80050 9.86598E-005 
80100 9.84079E-005 
80150 9.81567E-005 
80200 9.79064E-005 
80250 9.7657E-005 
80300 9.74083E-005 
80350 9.71603E-005 
80400 9.69132E-005 
80450 9.66669E-005 
80500 9.64213E-005 
80550 9.61766E-005 
80600 9.59326E-005 
80650 9.56894E-005 
80700 9.54469E-005 
80750 9.52053E-005 
80800 9.49644E-005 
80850 9.47242E-005 
80900 9.44849E-005 
80950 9.42462E-005 
81000 9.40084E-005 
81050 9.37713E-005 
81100 9.35349E-005 
81150 9.32993E-005 
81200 9.30644E-005 
81250 9.28302E-005 
81300 9.25969E-005 
81350 9.23642E-005 
81400 9.21323E-005 
81450 9.1901E-005 
81500 9.16706E-005 
81550 9.14408E-005 
81600 9.12118E-005 
81650 9.09834E-005 
81700 9.07558E-005 
81750 9.05289E-005 
81800 9.03027E-005 
81850 9.00773E-005 
81900 8.98525E-005 
81950 8.96284E-005 
82000 8.94051E-005 
82050 8.91824E-005 
82100 8.89604E-005 
82150 8.87391E-005 
82200 8.85185E-005 
82250 8.82986E-005 
82300 8.80794E-005 
82350 8.78608E-005 
82400 8.7643E-005 
82450 8.74258E-005 
82500 8.72093E-005 
82550 8.69934E-005 
82600 8.67782E-005 
82650 8.65637E-005 
82700 8.63499E-005 
82750 8.61367E-005 
82800 8.59242E-005 
82850 8.57123E-005 
82900 8.55011E-005 
82950 8.52905E-005 
83000 8.50806E-005 
83050 8.48714E-005 
83100 8.46628E-005 
83150 8.44548E-005 
83200 8.42475E-005 
83250 8.40409E-005 
83300 8.38348E-005 
83350 8.36294E-005 
83400 8.34247E-005 
83450 8.32205E-005 
83500 8.3017E-005 
83550 8.28141E-005 
83600 8.26118E-005 
83650 8.24102E-005 
83700 8.22091E-005 
83750 8.20087E-005 
83800 8.18089E-005 
83850 8.16097E-005 
83900 8.14111E-005 
83950 8.12131E-005 
84000 8.10157E-005 
84050 8.08189E-005 
84100 8.06227E-005 
84150 8.04271E-005 
84200 8.02321E-005 
84250 8.00376E-005 
84300 7.98438E-005 
84350 7.96505E-005 
84400 7.94579E-005 
84450 7.92658E-005 
84500 7.90743E-005 
84550 7.88834E-005 
84600 7.8693E-005 
84650 7.85033E-005 
84700 7.83141E-005 
84750 7.81255E-005 
84800 7.79374E-005 
84850 7.77499E-005 
84900 7.7563E-005 
84950 7.73766E-005 
85000 7.71908E-005 
85050 7.70057E-005 
85100 7.6821E-005 
85150 7.66369E-005 
85200 7.64534E-005 
85250 7.62704E-005 
85300 7.6088E-005 
85350 7.59061E-005 
85400 7.57247E-005 
85450 7.55439E-005 
85500 7.53637E-005 
85550 7.5184E-005 
85600 7.50048E-005 
85650 7.48261E-005 
85700 7.4648E-005 
85750 7.44704E-005 
85800 7.42934E-005 
85850 7.41169E-005 
85900 7.39408E-005 
85950 7.37654E-005 
86000 7.35904E-005 
86050 7.3416E-005 
86100 7.3242E-005 
86150 7.30686E-005 
86200 7.28957E-005 
86250 7.27234E-005 
86300 7.25515E-005 
86350 7.23801E-005 
86400 7.22093E-005 
86450 7.20389E-005 
86500 7.18691E-005 
86550 7.16997E-005 
86600 7.15309E-005 
86650 7.13625E-005 
86700 7.11946E-005 
86750 7.10273E-005 
86800 7.08604E-005 
86850 7.0694E-005 
86900 7.05281E-005 
86950 7.03627E-005 
87000 7.01978E-005 
87050 7.00333E-005 
87100 6.98694E-005 
87150 6.97059E-005 
87200 6.95429E-005 
87250 6.93804E-005 
87300 6.92183E-005 
87350 6.90568E-005 
87400 6.88957E-005 
87450 6.8735E-005 
87500 6.85749E-005 
87550 6.84152E-005 
87600 6.82559E-005 
87650 6.80972E-005 
87700 6.79389E-005 
87750 6.77811E-005 
87800 6.76237E-005 
87850 6.74667E-005 
87900 6.73103E-005 
87950 6.71543E-005 
88000 6.69987E-005 
88050 6.68436E-005 
88100 6.6689E-005 
88150 6.65348E-005 
88200 6.6381E-005 
88250 6.62277E-005 
88300 6.60748E-005 
88350 6.59224E-005 
88400 6.57704E-005 
88450 6.56189E-005 
88500 6.54678E-005 
88550 6.53171E-005 
88600 6.51669E-005 
88650 6.50171E-005 
88700 6.48677E-005 
88750 6.47187E-005 
88800 6.45702E-005 
88850 6.44221E-005 
88900 6.42745E-005 
88950 6.41272E-005 
89000 6.39804E-005 
89050 6.3834E-005 
89100 6.36881E-005 
89150 6.35425E-005 
89200 6.33974E-005 
89250 6.32527E-005 
89300 6.31084E-005 
89350 6.29645E-005 
89400 6.2821E-005 
89450 6.26779E-005 
89500 6.25353E-005 
89550 6.2393E-005 
89600 6.22512E-005 
89650 6.21097E-005 
89700 6.19687E-005 
89750 6.1828E-005 
89800 6.16878E-005 
89850 6.15479E-005 
89900 6.14085E-005 
89950 6.12694E-005 
90000 6.11308E-005 
90050 6.09925E-005 
90100 6.08547E-005 
90150 6.07172E-005 
90200 6.05801E-005 
90250 6.04434E-005 
90300 6.03071E-005 
90350 6.01711E-005 
90400 6.00356E-005 
90450 5.99004E-005 
90500 5.97657E-005 
90550 5.96313E-005 
90600 5.94972E-005 
90650 5.93636E-005 
90700 5.92303E-005 
90750 5.90974E-005 
90800 5.89649E-005 
90850 5.88327E-005 
90900 5.87009E-005 
90950 5.85695E-005 
91000 5.84385E-005 
91050 5.83078E-005 
91100 5.81775E-005 
91150 5.80475E-005 
91200 5.7918E-005 
91250 5.77887E-005 
91300 5.76599E-005 
91350 5.75314E-005 
91400 5.74032E-005 
91450 5.72755E-005 
91500 5.7148E-005 
91550 5.7021E-005 
91600 5.68942E-005 
91650 5.67679E-005 
91700 5.66418E-005 
91750 5.65162E-005 
91800 5.63909E-005 
91850 5.62659E-005 
91900 5.61413E-005 
91950 5.6017E-005 
92000 5.5893E-005 
92050 5.57695E-005 
92100 5.56462E-005 
92150 5.55233E-005 
92200 5.54007E-005 
92250 5.52785E-005 
92300 5.51566E-005 
92350 5.5035E-005 
92400 5.49138E-005 
92450 5.47929E-005 
92500 5.46724E-005 
92550 5.45522E-005 
92600 5.44323E-005 
92650 5.43127E-005 
92700 5.41935E-005 
92750 5.40746E-005 
92800 5.3956E-005 
92850 5.38377E-005 
92900 5.37198E-005 
92950 5.36022E-005 
93000 5.34849E-005 
93050 5.3368E-005 
93100 5.32513E-005 
93150 5.3135E-005 
93200 5.3019E-005 
93250 5.29034E-005 
93300 5.2788E-005 
93350 5.2673E-005 
93400 5.25582E-005 
93450 5.24438E-005 
93500 5.23297E-005 
93550 5.22159E-005 
93600 5.21024E-005 
93650 5.19893E-005 
93700 5.18764E-005 
93750 5.17638E-005 
93800 5.16516E-005 
93850 5.15396E-005 
93900 5.1428E-005 
93950 5.13166E-005 
94000 5.12056E-005 
94050 5.10949E-005 
94100 5.09844E-005 
94150 5.08743E-005 
94200 5.07644E-005 
94250 5.06549E-005 
94300 5.05456E-005 
94350 5.04367E-005 
94400 5.0328E-005 
94450 5.02196E-005 
94500 5.01115E-005 
94550 5.00037E-005 
94600 4.98962E-005 
94650 4.9789E-005 
94700 4.96821E-005 
94750 4.95755E-005 
94800 4.94691E-005 
94850 4.93631E-005 
94900 4.92573E-005 
94950 4.91518E-005 
95000 4.90466E-005 
95050 4.89417E-005 
95100 4.88371E-005 
95150 4.87327E-005 
95200 4.86286E-005 
95250 4.85248E-005 
95300 4.84213E-005 
95350 4.83181E-005 
95400 4.82151E-005 
95450 4.81125E-005 
95500 4.801E-005 
95550 4.79079E-005 
95600 4.7806E-005 
95650 4.77044E-005 
95700 4.76031E-005 
95750 4.7502E-005 
95800 4.74013E-005 
95850 4.73007E-005 
95900 4.72005E-005 
95950 4.71005E-005 
96000 4.70008E-005 
96050 4.69013E-005 
96100 4.68021E-005 
96150 4.67032E-005 
96200 4.66045E-005 
96250 4.65061E-005 
96300 4.64079E-005 
96350 4.63101E-005 
96400 4.62124E-005 
96450 4.6115E-005 
96500 4.60179E-005 
96550 4.59211E-005 
96600 4.58244E-005 
96650 4.57281E-005 
96700 4.5632E-005 
96750 4.55361E-005 
96800 4.54405E-005 
96850 4.53452E-005 
96900 4.52501E-005 
96950 4.51552E-005 
97000 4.50606E-005 
97050 4.49662E-005 
97100 4.48721E-005 
97150 4.47783E-005 
97200 4.46847E-005 
97250 4.45913E-005 
97300 4.44982E-005 
97350 4.44053E-005 
97400 4.43126E-005 
97450 4.42202E-005 
97500 4.41281E-005 
97550 4.40362E-005 
97600 4.39445E-005 
97650 4.3853E-005 
97700 4.37618E-005 
97750 4.36709E-005 
97800 4.35801E-005 
97850 4.34897E-005 
97900 4.33994E-005 
97950 4.33094E-005 
98000 4.32196E-005 
98050 4.313E-005 
98100 4.30407E-005 
98150 4.29517E-005 
98200 4.28628E-005 
98250 4.27742E-005 
98300 4.26858E-005 
98350 4.25977E-005 
98400 4.25097E-005 
98450 4.2422E-005 
98500 4.23345E-005 
98550 4.22473E-005 
98600 4.21603E-005 
98650 4.20735E-005 
98700 4.19869E-005 
98750 4.19005E-005 
98800 4.18144E-005 
98850 4.17285E-005 
98900 4.16428E-005 
98950 4.15573E-005 
99000 4.14721E-005 
99050 4.1387E-005 
99100 4.13022E-005 
99150 4.12176E-005 
99200 4.11332E-005 
99250 4.1049E-005 
99300 4.09651E-005 
99350 4.08813E-005 
99400 4.07978E-005 
99450 4.07145E-005 
99500 4.06314E-005 
99550 4.05485E-005 
99600 4.04658E-005 
99650 4.03834E-005 
99700 4.03011E-005 
99750 4.0219E-005 
99800 4.01372E-005 
99850 4.00556E-005 
99900 3.99742E-005 
99950 3.98929E-005 
100000 3.98119E-005 
