#F U:\Beamline I20\I20-1_EDE\GDA-EDE\power-calculation\Si-3p25mrad.dat
#C Si 3.25mrad
#S 1 File written by xplot on Mon Sep 09 11:38:56 2013
#N 2
#L    Photon Energy [eV]  Intens after oe #1
50 0.996757 
100 0.945451 
150 0.959079 
200 0.965694 
250 0.967675 
300 0.96927 
350 0.970486 
400 0.972087 
450 0.973358 
500 0.974585 
550 0.975617 
600 0.976611 
650 0.977609 
700 0.978427 
750 0.978961 
800 0.979487 
850 0.980169 
900 0.980798 
950 0.981559 
1000 0.982245 
1050 0.982861 
1100 0.983375 
1150 0.98368 
1200 0.983962 
1250 0.984224 
1300 0.984454 
1350 0.984664 
1400 0.984845 
1450 0.98499 
1500 0.985098 
1550 0.985186 
1600 0.985203 
1650 0.985112 
1700 0.984844 
1750 0.984217 
1800 0.982261 
1850 0.738932 
1900 0.853186 
1950 0.866286 
2000 0.874107 
2050 0.879578 
2100 0.883886 
2150 0.887407 
2200 0.890405 
2250 0.892995 
2300 0.895322 
2350 0.897396 
2400 0.899294 
2450 0.901054 
2500 0.902675 
2550 0.90418 
2600 0.9056 
2650 0.906944 
2700 0.908215 
2750 0.90942 
2800 0.91056 
2850 0.911647 
2900 0.912692 
2950 0.913694 
3000 0.914654 
3050 0.915577 
3100 0.916467 
3150 0.917324 
3200 0.918152 
3250 0.91895 
3300 0.919722 
3350 0.92047 
3400 0.921194 
3450 0.921897 
3500 0.922579 
3550 0.923241 
3600 0.923874 
3650 0.92449 
3700 0.925089 
3750 0.925673 
3800 0.926243 
3850 0.9268 
3900 0.927332 
3950 0.927848 
4000 0.928353 
4050 0.928848 
4100 0.929332 
4150 0.92979 
4200 0.930239 
4250 0.930682 
4300 0.931114 
4350 0.931522 
4400 0.931925 
4450 0.932325 
4500 0.9327 
4550 0.933067 
4600 0.933433 
4650 0.93378 
4700 0.934115 
4750 0.934449 
4800 0.934765 
4850 0.935071 
4900 0.935376 
4950 0.935661 
5000 0.935941 
5050 0.936218 
5100 0.936473 
5150 0.936731 
5200 0.936975 
5250 0.937207 
5300 0.937441 
5350 0.937651 
5400 0.937866 
5450 0.938062 
5500 0.938255 
5550 0.93844 
5600 0.938611 
5650 0.938785 
5700 0.938936 
5750 0.939094 
5800 0.939226 
5850 0.939363 
5900 0.939482 
5950 0.9396 
6000 0.939705 
6050 0.939805 
6100 0.939892 
6150 0.939973 
6200 0.940044 
6250 0.940106 
6300 0.940158 
6350 0.940203 
6400 0.940238 
6450 0.940265 
6500 0.940276 
6550 0.940284 
6600 0.940275 
6650 0.940265 
6700 0.940234 
6750 0.940206 
6800 0.940149 
6850 0.940098 
6900 0.940019 
6950 0.93994 
7000 0.939841 
7050 0.939733 
7100 0.939612 
7150 0.939473 
7200 0.93933 
7250 0.939157 
7300 0.938983 
7350 0.938781 
7400 0.938569 
7450 0.938339 
7500 0.938086 
7550 0.937826 
7600 0.937527 
7650 0.937219 
7700 0.936884 
7750 0.936524 
7800 0.936149 
7850 0.935731 
7900 0.935297 
7950 0.934826 
8000 0.934322 
8050 0.933795 
8100 0.93321 
8150 0.932598 
8200 0.931942 
8250 0.93123 
8300 0.93048 
8350 0.929659 
8400 0.928782 
8450 0.927848 
8500 0.926821 
8550 0.925724 
8600 0.924536 
8650 0.923234 
8700 0.92183 
8750 0.920287 
8800 0.918592 
8850 0.916739 
8900 0.914674 
8950 0.912382 
9000 0.909828 
9050 0.906933 
9100 0.903651 
9150 0.899894 
9200 0.895521 
9250 0.89038 
9300 0.884229 
9350 0.876721 
9400 0.867283 
9450 0.854971 
9500 0.838422 
9550 0.814366 
9600 0.776627 
9650 0.721438 
9700 0.648678 
9750 0.577382 
9800 0.508112 
9850 0.452497 
9900 0.408154 
9950 0.37115 
10000 0.339932 
10050 0.313335 
10100 0.291215 
10150 0.272606 
10200 0.256009 
10250 0.241093 
10300 0.227597 
10350 0.215331 
10400 0.204131 
10450 0.193908 
10500 0.1845 
10550 0.175809 
10600 0.167772 
10650 0.160317 
10700 0.15337 
10750 0.146886 
10800 0.140833 
10850 0.135156 
10900 0.129823 
10950 0.124812 
11000 0.120093 
11050 0.115638 
11100 0.111427 
11150 0.107449 
11200 0.103678 
11250 0.1001 
11300 0.0967045 
11350 0.0934778 
11400 0.0904064 
11450 0.0874801 
11500 0.0846934 
11550 0.0820341 
11600 0.0794939 
11650 0.077066 
11700 0.0747454 
11750 0.0725236 
11800 0.0703951 
11850 0.0683556 
11900 0.0664007 
11950 0.0645241 
12000 0.0627218 
12050 0.0609905 
12100 0.0593262 
12150 0.0577251 
12200 0.056184 
12250 0.054701 
12300 0.0532727 
12350 0.0518959 
12400 0.0505682 
12450 0.049288 
12500 0.0480527 
12550 0.04686 
12600 0.0457077 
12650 0.044595 
12700 0.0435196 
12750 0.0424796 
12800 0.0414735 
12850 0.0405002 
12900 0.0395582 
12950 0.0386459 
13000 0.0377623 
13050 0.0369062 
13100 0.0360767 
13150 0.0352724 
13200 0.0344923 
13250 0.0337357 
13300 0.0330017 
13350 0.0322893 
13400 0.0315975 
13450 0.0309257 
13500 0.0302735 
13550 0.0296397 
13600 0.0290237 
13650 0.0284248 
13700 0.0278427 
13750 0.0272765 
13800 0.0267257 
13850 0.0261898 
13900 0.0256683 
13950 0.0251609 
14000 0.0246668 
14050 0.0241856 
14100 0.0237169 
14150 0.0232605 
14200 0.0228158 
14250 0.0223825 
14300 0.02196 
14350 0.0215481 
14400 0.0211466 
14450 0.0207549 
14500 0.0203729 
14550 0.0200002 
14600 0.0196365 
14650 0.0192817 
14700 0.0189353 
14750 0.0185971 
14800 0.0182669 
14850 0.0179445 
14900 0.0176297 
14950 0.0173221 
15000 0.0170216 
15050 0.016728 
15100 0.0164411 
15150 0.0161606 
15200 0.0158864 
15250 0.0156183 
15300 0.0153561 
15350 0.0150999 
15400 0.0148492 
15450 0.014604 
15500 0.0143641 
15550 0.0141294 
15600 0.0138998 
15650 0.013675 
15700 0.013455 
15750 0.0132396 
15800 0.0130287 
15850 0.0128223 
15900 0.0126201 
15950 0.0124221 
16000 0.0122281 
16050 0.0120381 
16100 0.011852 
16150 0.0116696 
16200 0.0114908 
16250 0.0113157 
16300 0.011144 
16350 0.0109757 
16400 0.0108108 
16450 0.0106491 
16500 0.0104905 
16550 0.010335 
16600 0.0101825 
16650 0.010033 
16700 0.00988626 
16750 0.00974233 
16800 0.00960111 
16850 0.00946257 
16900 0.00932667 
16950 0.00919329 
17000 0.0090624 
17050 0.00893391 
17100 0.00880778 
17150 0.00868397 
17200 0.0085624 
17250 0.00844304 
17300 0.00832584 
17350 0.00821073 
17400 0.00809768 
17450 0.00798666 
17500 0.00787759 
17550 0.00777046 
17600 0.0076652 
17650 0.00756178 
17700 0.0074602 
17750 0.0073604 
17800 0.00726231 
17850 0.00716592 
17900 0.00707117 
17950 0.00697804 
18000 0.00688649 
18050 0.0067965 
18100 0.00670802 
18150 0.00662102 
18200 0.00653547 
18250 0.00645135 
18300 0.00636865 
18350 0.0062873 
18400 0.0062073 
18450 0.0061286 
18500 0.00605119 
18550 0.00597504 
18600 0.00590012 
18650 0.00582641 
18700 0.00575388 
18750 0.00568251 
18800 0.00561228 
18850 0.00554317 
18900 0.00547516 
18950 0.00540823 
19000 0.00534235 
19050 0.00527749 
19100 0.00521365 
19150 0.0051508 
19200 0.00508893 
19250 0.00502802 
19300 0.00496805 
19350 0.00490899 
19400 0.00485083 
19450 0.00479355 
19500 0.00473715 
19550 0.00468159 
19600 0.00462687 
19650 0.00457297 
19700 0.00451987 
19750 0.00446756 
19800 0.00441603 
19850 0.00436526 
19900 0.00431523 
19950 0.00426594 
20000 0.00421737 
20050 0.00416951 
20100 0.00412235 
20150 0.00407587 
20200 0.00403007 
20250 0.00398493 
20300 0.00394043 
20350 0.00389656 
20400 0.00385332 
20450 0.0038107 
20500 0.00376869 
20550 0.00372727 
20600 0.00368643 
20650 0.00364616 
20700 0.00360645 
20750 0.0035673 
20800 0.00352869 
20850 0.00349061 
20900 0.00345306 
20950 0.00341602 
21000 0.00337949 
21050 0.00334346 
21100 0.00330792 
21150 0.00327286 
21200 0.00323827 
21250 0.00320415 
21300 0.00317049 
21350 0.00313728 
21400 0.00310452 
21450 0.00307219 
21500 0.0030403 
21550 0.00300883 
21600 0.00297777 
21650 0.00294712 
21700 0.00291688 
21750 0.00288703 
21800 0.00285757 
21850 0.0028285 
21900 0.00279981 
21950 0.00277148 
22000 0.00274352 
22050 0.00271592 
22100 0.00268868 
22150 0.00266178 
22200 0.00263522 
22250 0.002609 
22300 0.00258312 
22350 0.00255756 
22400 0.00253232 
22450 0.0025074 
22500 0.00248279 
22550 0.00245849 
22600 0.00243449 
22650 0.00241079 
22700 0.00238738 
22750 0.00236426 
22800 0.00234143 
22850 0.00231887 
22900 0.0022966 
22950 0.00227459 
23000 0.00225285 
23050 0.00223138 
23100 0.00221017 
23150 0.00218921 
23200 0.00216851 
23250 0.00214805 
23300 0.00212785 
23350 0.00210788 
23400 0.00208816 
23450 0.00206866 
23500 0.0020494 
23550 0.00203037 
23600 0.00201156 
23650 0.00199298 
23700 0.00197461 
23750 0.00195646 
23800 0.00193852 
23850 0.00192079 
23900 0.00190327 
23950 0.00188595 
24000 0.00186882 
24050 0.00185189 
24100 0.00183516 
24150 0.00181862 
24200 0.00180227 
24250 0.0017861 
24300 0.00177012 
24350 0.00175432 
24400 0.0017387 
24450 0.00172326 
24500 0.00170799 
24550 0.00169289 
24600 0.00167796 
24650 0.0016632 
24700 0.00164861 
24750 0.00163417 
24800 0.0016199 
24850 0.00160579 
24900 0.00159184 
24950 0.00157803 
25000 0.00156438 
25050 0.00155088 
25100 0.00153753 
25150 0.00152432 
25200 0.00151125 
25250 0.00149833 
25300 0.00148555 
25350 0.0014729 
25400 0.0014604 
25450 0.00144802 
25500 0.00143578 
25550 0.00142367 
25600 0.00141169 
25650 0.00139984 
25700 0.00138811 
25750 0.00137651 
25800 0.00136503 
25850 0.00135367 
25900 0.00134243 
25950 0.00133131 
26000 0.00132031 
26050 0.00130942 
26100 0.00129864 
26150 0.00128798 
26200 0.00127743 
26250 0.00126698 
26300 0.00125665 
26350 0.00124642 
26400 0.0012363 
26450 0.00122628 
26500 0.00121637 
26550 0.00120655 
26600 0.00119684 
26650 0.00118723 
26700 0.00117771 
26750 0.00116829 
26800 0.00115897 
26850 0.00114974 
26900 0.0011406 
26950 0.00113155 
27000 0.0011226 
27050 0.00111373 
27100 0.00110496 
27150 0.00109627 
27200 0.00108766 
27250 0.00107915 
27300 0.00107071 
27350 0.00106236 
27400 0.00105409 
27450 0.00104591 
27500 0.0010378 
27550 0.00102977 
27600 0.00102183 
27650 0.00101396 
27700 0.00100616 
27750 0.000998445 
27800 0.000990803 
27850 0.000983236 
27900 0.00097574 
27950 0.000968317 
28000 0.000960966 
28050 0.000953684 
28100 0.000946472 
28150 0.00093933 
28200 0.000932256 
28250 0.000925249 
28300 0.000918308 
28350 0.000911433 
28400 0.000904623 
28450 0.000897877 
28500 0.000891195 
28550 0.000884575 
28600 0.000878018 
28650 0.000871522 
28700 0.000865087 
28750 0.000858712 
28800 0.000852395 
28850 0.000846138 
28900 0.000839939 
28950 0.000833796 
29000 0.000827711 
29050 0.000821681 
29100 0.000815712 
29150 0.000809798 
29200 0.000803939 
29250 0.000798132 
29300 0.000792379 
29350 0.000786678 
29400 0.000781029 
29450 0.00077543 
29500 0.000769882 
29550 0.000764381 
29600 0.000758924 
29650 0.000753517 
29700 0.000748159 
29750 0.000742848 
29800 0.000737585 
29850 0.000732369 
29900 0.0007272 
29950 0.000722076 
30000 0.000716998 
30050 0.000712064 
30100 0.000707174 
30150 0.000702326 
30200 0.00069752 
30250 0.000692756 
30300 0.000688034 
30350 0.000683352 
30400 0.00067871 
30450 0.000674016 
30500 0.000669362 
30550 0.000664748 
30600 0.000660174 
30650 0.00065564 
30700 0.000651146 
30750 0.00064669 
30800 0.000642273 
30850 0.000637894 
30900 0.000633554 
30950 0.00062925 
31000 0.000624984 
31050 0.000620754 
31100 0.00061656 
31150 0.000612401 
31200 0.000608278 
31250 0.000604189 
31300 0.000600133 
31350 0.000596113 
31400 0.000592126 
31450 0.000588173 
31500 0.000584253 
31550 0.000580367 
31600 0.000576514 
31650 0.000572693 
31700 0.000568904 
31750 0.000565146 
31800 0.00056142 
31850 0.000557725 
31900 0.00055406 
31950 0.000550427 
32000 0.000546823 
32050 0.00054325 
32100 0.000539705 
32150 0.00053619 
32200 0.000532704 
32250 0.000529246 
32300 0.000525816 
32350 0.000522414 
32400 0.000519039 
32450 0.000515692 
32500 0.000512371 
32550 0.000509078 
32600 0.000505811 
32650 0.000502571 
32700 0.000499357 
32750 0.000496168 
32800 0.000493006 
32850 0.000489868 
32900 0.000486756 
32950 0.000483669 
33000 0.000480606 
33050 0.000477568 
33100 0.000474555 
33150 0.000471566 
33200 0.0004686 
33250 0.000465658 
33300 0.000462739 
33350 0.000459843 
33400 0.00045697 
33450 0.000454119 
33500 0.000451291 
33550 0.000448485 
33600 0.000445701 
33650 0.000442938 
33700 0.000440197 
33750 0.000437478 
33800 0.00043478 
33850 0.000432102 
33900 0.000429446 
33950 0.00042681 
34000 0.000424194 
34050 0.000421599 
34100 0.000419024 
34150 0.000416468 
34200 0.000413931 
34250 0.000411414 
34300 0.000408917 
34350 0.000406438 
34400 0.000403978 
34450 0.000401537 
34500 0.000399115 
34550 0.000396712 
34600 0.000394327 
34650 0.000391959 
34700 0.00038961 
34750 0.000387279 
34800 0.000384965 
34850 0.000382668 
34900 0.000380389 
34950 0.000378126 
35000 0.000375881 
35050 0.000373652 
35100 0.00037144 
35150 0.000369245 
35200 0.000367065 
35250 0.000364902 
35300 0.000362755 
35350 0.000360624 
35400 0.000358508 
35450 0.000356409 
35500 0.000354324 
35550 0.000352255 
35600 0.000350201 
35650 0.000348162 
35700 0.000346138 
35750 0.000344129 
35800 0.000342135 
35850 0.000340155 
35900 0.000338189 
35950 0.000336238 
36000 0.000334301 
36050 0.000332377 
36100 0.000330468 
36150 0.000328573 
36200 0.000326691 
36250 0.000324823 
36300 0.000322968 
36350 0.000321126 
36400 0.000319298 
36450 0.000317483 
36500 0.000315681 
36550 0.000313892 
36600 0.000312115 
36650 0.000310351 
36700 0.0003086 
36750 0.000306861 
36800 0.000305134 
36850 0.00030342 
36900 0.000301718 
36950 0.000300028 
37000 0.000298349 
37050 0.000296683 
37100 0.000295028 
37150 0.000293386 
37200 0.000291754 
37250 0.000290134 
37300 0.000288526 
37350 0.000286928 
37400 0.000285342 
37450 0.000283766 
37500 0.000282202 
37550 0.000280648 
37600 0.000279105 
37650 0.000277572 
37700 0.00027605 
37750 0.000274538 
37800 0.000273037 
37850 0.000271546 
37900 0.000270066 
37950 0.000268595 
38000 0.000267135 
38050 0.000265685 
38100 0.000264244 
38150 0.000262814 
38200 0.000261393 
38250 0.000259982 
38300 0.000258581 
38350 0.000257189 
38400 0.000255806 
38450 0.000254433 
38500 0.000253069 
38550 0.000251714 
38600 0.000250368 
38650 0.000249032 
38700 0.000247704 
38750 0.000246385 
38800 0.000245075 
38850 0.000243774 
38900 0.000242481 
38950 0.000241197 
39000 0.000239922 
39050 0.000238655 
39100 0.000237396 
39150 0.000236146 
39200 0.000234904 
39250 0.00023367 
39300 0.000232445 
39350 0.000231227 
39400 0.000230018 
39450 0.000228816 
39500 0.000227622 
39550 0.000226436 
39600 0.000225258 
39650 0.000224088 
39700 0.000222925 
39750 0.000221769 
39800 0.000220622 
39850 0.000219481 
39900 0.000218348 
39950 0.000217223 
40000 0.000216105 
40050 0.000214994 
40100 0.00021389 
40150 0.000212794 
40200 0.000211704 
40250 0.000210622 
40300 0.000209546 
40350 0.000208478 
40400 0.000207416 
40450 0.000206361 
40500 0.000205313 
40550 0.000204271 
40600 0.000203236 
40650 0.000202208 
40700 0.000201186 
40750 0.000200171 
40800 0.000199162 
40850 0.00019816 
40900 0.000197163 
40950 0.000196173 
41000 0.00019519 
41050 0.000194212 
41100 0.000193241 
41150 0.000192276 
41200 0.000191317 
41250 0.000190363 
41300 0.000189416 
41350 0.000188475 
41400 0.000187539 
41450 0.00018661 
41500 0.000185686 
41550 0.000184768 
41600 0.000183855 
41650 0.000182949 
41700 0.000182048 
41750 0.000181152 
41800 0.000180262 
41850 0.000179377 
41900 0.000178498 
41950 0.000177624 
42000 0.000176756 
42050 0.000175892 
42100 0.000175034 
42150 0.000174181 
42200 0.000173334 
42250 0.000172491 
42300 0.000171654 
42350 0.000170822 
42400 0.000169995 
42450 0.000169174 
42500 0.000168357 
42550 0.000167545 
42600 0.000166738 
42650 0.000165936 
42700 0.000165139 
42750 0.000164346 
42800 0.000163559 
42850 0.000162776 
42900 0.000161997 
42950 0.000161224 
43000 0.000160455 
43050 0.000159691 
43100 0.000158931 
43150 0.000158176 
43200 0.000157426 
43250 0.00015668 
43300 0.000155939 
43350 0.000155201 
43400 0.000154469 
43450 0.00015374 
43500 0.000153016 
43550 0.000152296 
43600 0.000151581 
43650 0.000150869 
43700 0.000150162 
43750 0.000149459 
43800 0.00014876 
43850 0.000148065 
43900 0.000147374 
43950 0.000146687 
44000 0.000146005 
44050 0.000145326 
44100 0.000144651 
44150 0.00014398 
44200 0.000143313 
44250 0.00014265 
44300 0.000141991 
44350 0.000141335 
44400 0.000140683 
44450 0.000140035 
44500 0.000139391 
44550 0.000138751 
44600 0.000138114 
44650 0.000137481 
44700 0.000136851 
44750 0.000136225 
44800 0.000135603 
44850 0.000134984 
44900 0.000134369 
44950 0.000133758 
45000 0.000133149 
45050 0.000132545 
45100 0.000131943 
45150 0.000131346 
45200 0.000130751 
45250 0.00013016 
45300 0.000129572 
45350 0.000128988 
45400 0.000128407 
45450 0.000127829 
45500 0.000127254 
45550 0.000126683 
45600 0.000126115 
45650 0.00012555 
45700 0.000124988 
45750 0.00012443 
45800 0.000123874 
45850 0.000123322 
45900 0.000122773 
45950 0.000122227 
46000 0.000121684 
46050 0.000121143 
46100 0.000120606 
46150 0.000120072 
46200 0.000119541 
46250 0.000119013 
46300 0.000118488 
46350 0.000117965 
46400 0.000117446 
46450 0.000116929 
46500 0.000116416 
46550 0.000115905 
46600 0.000115397 
46650 0.000114892 
46700 0.00011439 
46750 0.00011389 
46800 0.000113393 
46850 0.000112899 
46900 0.000112407 
46950 0.000111919 
47000 0.000111433 
47050 0.000110949 
47100 0.000110468 
47150 0.00010999 
47200 0.000109514 
47250 0.000109041 
47300 0.00010857 
47350 0.000108102 
47400 0.000107636 
47450 0.000107173 
47500 0.000106713 
47550 0.000106255 
47600 0.000105799 
47650 0.000105346 
47700 0.000104895 
47750 0.000104447 
47800 0.000104001 
47850 0.000103557 
47900 0.000103116 
47950 0.000102677 
48000 0.000102241 
48050 0.000101807 
48100 0.000101375 
48150 0.000100946 
48200 0.000100519 
48250 0.000100094 
48300 9.96712E-005 
48350 9.92508E-005 
48400 9.88327E-005 
48450 9.84167E-005 
48500 9.8003E-005 
48550 9.75915E-005 
48600 9.71821E-005 
48650 9.67748E-005 
48700 9.63697E-005 
48750 9.59667E-005 
48800 9.55659E-005 
48850 9.51671E-005 
48900 9.47704E-005 
48950 9.43758E-005 
49000 9.39833E-005 
49050 9.35926E-005 
49100 9.3204E-005 
49150 9.28174E-005 
49200 9.24329E-005 
49250 9.20503E-005 
49300 9.16697E-005 
49350 9.12911E-005 
49400 9.09144E-005 
49450 9.05397E-005 
49500 9.01669E-005 
49550 8.97962E-005 
49600 8.94273E-005 
49650 8.90604E-005 
49700 8.86954E-005 
49750 8.83322E-005 
49800 8.79709E-005 
49850 8.76115E-005 
49900 8.72539E-005 
49950 8.68981E-005 
50000 8.65441E-005 
50050 8.6192E-005 
50100 8.58416E-005 
50150 8.5493E-005 
50200 8.51462E-005 
50250 8.48012E-005 
50300 8.44579E-005 
50350 8.41164E-005 
50400 8.37765E-005 
50450 8.34384E-005 
50500 8.3102E-005 
50550 8.27674E-005 
50600 8.24344E-005 
50650 8.2103E-005 
50700 8.17734E-005 
50750 8.14454E-005 
50800 8.11191E-005 
50850 8.07944E-005 
50900 8.04713E-005 
50950 8.01498E-005 
51000 7.983E-005 
51050 7.95118E-005 
51100 7.91953E-005 
51150 7.88803E-005 
51200 7.85669E-005 
51250 7.82551E-005 
51300 7.79447E-005 
51350 7.7636E-005 
51400 7.73288E-005 
51450 7.70231E-005 
51500 7.67189E-005 
51550 7.64161E-005 
51600 7.61149E-005 
51650 7.58151E-005 
51700 7.55167E-005 
51750 7.52199E-005 
51800 7.49245E-005 
51850 7.46306E-005 
51900 7.43381E-005 
51950 7.4047E-005 
52000 7.37574E-005 
52050 7.34691E-005 
52100 7.31824E-005 
52150 7.2897E-005 
52200 7.2613E-005 
52250 7.23304E-005 
52300 7.20491E-005 
52350 7.17693E-005 
52400 7.14907E-005 
52450 7.12136E-005 
52500 7.09378E-005 
52550 7.06633E-005 
52600 7.03902E-005 
52650 7.01183E-005 
52700 6.98478E-005 
52750 6.95786E-005 
52800 6.93107E-005 
52850 6.90441E-005 
52900 6.87788E-005 
52950 6.85148E-005 
53000 6.8252E-005 
53050 6.79904E-005 
53100 6.77302E-005 
53150 6.74712E-005 
53200 6.72134E-005 
53250 6.69569E-005 
53300 6.67016E-005 
53350 6.64475E-005 
53400 6.61946E-005 
53450 6.59429E-005 
53500 6.56925E-005 
53550 6.54433E-005 
53600 6.51953E-005 
53650 6.49484E-005 
53700 6.47028E-005 
53750 6.44583E-005 
53800 6.4215E-005 
53850 6.39728E-005 
53900 6.37317E-005 
53950 6.34918E-005 
54000 6.32531E-005 
54050 6.30153E-005 
54100 6.27787E-005 
54150 6.25432E-005 
54200 6.23088E-005 
54250 6.20755E-005 
54300 6.18433E-005 
54350 6.16121E-005 
54400 6.13821E-005 
54450 6.11531E-005 
54500 6.09252E-005 
54550 6.06984E-005 
54600 6.04726E-005 
54650 6.02479E-005 
54700 6.00244E-005 
54750 5.9802E-005 
54800 5.95807E-005 
54850 5.93604E-005 
54900 5.91402E-005 
54950 5.89219E-005 
55000 5.87047E-005 
55050 5.84881E-005 
55100 5.82726E-005 
55150 5.8058E-005 
55200 5.78444E-005 
55250 5.76319E-005 
55300 5.74203E-005 
55350 5.72099E-005 
55400 5.70005E-005 
55450 5.67921E-005 
55500 5.65846E-005 
55550 5.63778E-005 
55600 5.6172E-005 
55650 5.59671E-005 
55700 5.57632E-005 
55750 5.55602E-005 
55800 5.53581E-005 
55850 5.51569E-005 
55900 5.49566E-005 
55950 5.47573E-005 
56000 5.45589E-005 
56050 5.43614E-005 
56100 5.41648E-005 
56150 5.3969E-005 
56200 5.37742E-005 
56250 5.35803E-005 
56300 5.33872E-005 
56350 5.3195E-005 
56400 5.30036E-005 
56450 5.28132E-005 
56500 5.26236E-005 
56550 5.24348E-005 
56600 5.22469E-005 
56650 5.20598E-005 
56700 5.18736E-005 
56750 5.16882E-005 
56800 5.15036E-005 
56850 5.13199E-005 
56900 5.1137E-005 
56950 5.09549E-005 
57000 5.07736E-005 
57050 5.05932E-005 
57100 5.04135E-005 
57150 5.02347E-005 
57200 5.00566E-005 
57250 4.98793E-005 
57300 4.97028E-005 
57350 4.95271E-005 
57400 4.93522E-005 
57450 4.91781E-005 
57500 4.90047E-005 
57550 4.88321E-005 
57600 4.86602E-005 
57650 4.84891E-005 
57700 4.83188E-005 
57750 4.81491E-005 
57800 4.79803E-005 
57850 4.78122E-005 
57900 4.76448E-005 
57950 4.74782E-005 
58000 4.73122E-005 
58050 4.7147E-005 
58100 4.69826E-005 
58150 4.68188E-005 
58200 4.66558E-005 
58250 4.64935E-005 
58300 4.63319E-005 
58350 4.6171E-005 
58400 4.60108E-005 
58450 4.58513E-005 
58500 4.56925E-005 
58550 4.55343E-005 
58600 4.53769E-005 
58650 4.52201E-005 
58700 4.50641E-005 
58750 4.49087E-005 
58800 4.47539E-005 
58850 4.45999E-005 
58900 4.44465E-005 
58950 4.42937E-005 
59000 4.41416E-005 
59050 4.39902E-005 
59100 4.38394E-005 
59150 4.36893E-005 
59200 4.35398E-005 
59250 4.3391E-005 
59300 4.32427E-005 
59350 4.30952E-005 
59400 4.29482E-005 
59450 4.28019E-005 
59500 4.26562E-005 
59550 4.25111E-005 
59600 4.23667E-005 
59650 4.22228E-005 
59700 4.20796E-005 
59750 4.1937E-005 
59800 4.17949E-005 
59850 4.16535E-005 
59900 4.15126E-005 
59950 4.13724E-005 
60000 4.12327E-005 
60050 4.10937E-005 
60100 4.09552E-005 
60150 4.08174E-005 
60200 4.06801E-005 
60250 4.05434E-005 
60300 4.04072E-005 
60350 4.02717E-005 
60400 4.01367E-005 
60450 4.00023E-005 
60500 3.98684E-005 
60550 3.97351E-005 
60600 3.96024E-005 
60650 3.94702E-005 
60700 3.93385E-005 
60750 3.92075E-005 
60800 3.90769E-005 
60850 3.8947E-005 
60900 3.88175E-005 
60950 3.86886E-005 
61000 3.85603E-005 
61050 3.84325E-005 
61100 3.83052E-005 
61150 3.81784E-005 
61200 3.80522E-005 
61250 3.79264E-005 
61300 3.78013E-005 
61350 3.76766E-005 
61400 3.75524E-005 
61450 3.74288E-005 
61500 3.73056E-005 
61550 3.7183E-005 
61600 3.70608E-005 
61650 3.69392E-005 
61700 3.6818E-005 
61750 3.66974E-005 
61800 3.65772E-005 
61850 3.64575E-005 
61900 3.63384E-005 
61950 3.62197E-005 
62000 3.61015E-005 
62050 3.59838E-005 
62100 3.58665E-005 
62150 3.57497E-005 
62200 3.56335E-005 
62250 3.55176E-005 
62300 3.54023E-005 
62350 3.52875E-005 
62400 3.51731E-005 
62450 3.50592E-005 
62500 3.49457E-005 
62550 3.48327E-005 
62600 3.47201E-005 
62650 3.46081E-005 
62700 3.44964E-005 
62750 3.43852E-005 
62800 3.42745E-005 
62850 3.41642E-005 
62900 3.40544E-005 
62950 3.3945E-005 
63000 3.3836E-005 
63050 3.37275E-005 
63100 3.36194E-005 
63150 3.35117E-005 
63200 3.34044E-005 
63250 3.32976E-005 
63300 3.31912E-005 
63350 3.30852E-005 
63400 3.29797E-005 
63450 3.28746E-005 
63500 3.27699E-005 
63550 3.26656E-005 
63600 3.25617E-005 
63650 3.24582E-005 
63700 3.23552E-005 
63750 3.22526E-005 
63800 3.21503E-005 
63850 3.20485E-005 
63900 3.19471E-005 
63950 3.18461E-005 
64000 3.17454E-005 
64050 3.16452E-005 
64100 3.15454E-005 
64150 3.1446E-005 
64200 3.1347E-005 
64250 3.12484E-005 
64300 3.11501E-005 
64350 3.10523E-005 
64400 3.09548E-005 
64450 3.08577E-005 
64500 3.0761E-005 
64550 3.06647E-005 
64600 3.05688E-005 
64650 3.04732E-005 
64700 3.0378E-005 
64750 3.02832E-005 
64800 3.01887E-005 
64850 3.00946E-005 
64900 3.00009E-005 
64950 2.99076E-005 
65000 2.98146E-005 
65050 2.97219E-005 
65100 2.96297E-005 
65150 2.95378E-005 
65200 2.94462E-005 
65250 2.9355E-005 
65300 2.92641E-005 
65350 2.91736E-005 
65400 2.90835E-005 
65450 2.89937E-005 
65500 2.89042E-005 
65550 2.88151E-005 
65600 2.87264E-005 
65650 2.86379E-005 
65700 2.85499E-005 
65750 2.84621E-005 
65800 2.83747E-005 
65850 2.82876E-005 
65900 2.82009E-005 
65950 2.81145E-005 
66000 2.80284E-005 
66050 2.79427E-005 
66100 2.78573E-005 
66150 2.77722E-005 
66200 2.76874E-005 
66250 2.7603E-005 
66300 2.75189E-005 
66350 2.74351E-005 
66400 2.73516E-005 
66450 2.72685E-005 
66500 2.71856E-005 
66550 2.71031E-005 
66600 2.70209E-005 
66650 2.6939E-005 
66700 2.68574E-005 
66750 2.67761E-005 
66800 2.66952E-005 
66850 2.66145E-005 
66900 2.65341E-005 
66950 2.64541E-005 
67000 2.63743E-005 
67050 2.62948E-005 
67100 2.62157E-005 
67150 2.61368E-005 
67200 2.60583E-005 
67250 2.598E-005 
67300 2.5902E-005 
67350 2.58243E-005 
67400 2.57469E-005 
67450 2.56699E-005 
67500 2.55931E-005 
67550 2.55166E-005 
67600 2.54404E-005 
67650 2.53645E-005 
67700 2.52889E-005 
67750 2.52135E-005 
67800 2.51384E-005 
67850 2.50636E-005 
67900 2.49891E-005 
67950 2.49149E-005 
68000 2.48409E-005 
68050 2.47672E-005 
68100 2.46938E-005 
68150 2.46206E-005 
68200 2.45477E-005 
68250 2.44751E-005 
68300 2.44027E-005 
68350 2.43307E-005 
68400 2.42588E-005 
68450 2.41873E-005 
68500 2.4116E-005 
68550 2.4045E-005 
68600 2.39742E-005 
68650 2.39037E-005 
68700 2.38334E-005 
68750 2.37635E-005 
68800 2.36937E-005 
68850 2.36243E-005 
68900 2.3555E-005 
68950 2.34861E-005 
69000 2.34174E-005 
69050 2.33489E-005 
69100 2.32807E-005 
69150 2.32127E-005 
69200 2.3145E-005 
69250 2.30775E-005 
69300 2.30103E-005 
69350 2.29433E-005 
69400 2.28766E-005 
69450 2.28101E-005 
69500 2.27439E-005 
69550 2.26779E-005 
69600 2.26121E-005 
69650 2.25466E-005 
69700 2.24813E-005 
69750 2.24162E-005 
69800 2.23514E-005 
69850 2.22868E-005 
69900 2.22225E-005 
69950 2.21584E-005 
70000 2.20945E-005 
70050 2.20308E-005 
70100 2.19674E-005 
70150 2.19042E-005 
70200 2.18413E-005 
70250 2.17786E-005 
70300 2.17161E-005 
70350 2.16538E-005 
70400 2.15917E-005 
70450 2.15299E-005 
70500 2.14683E-005 
70550 2.14069E-005 
70600 2.13457E-005 
70650 2.12848E-005 
70700 2.1224E-005 
70750 2.11635E-005 
70800 2.11032E-005 
70850 2.10431E-005 
70900 2.09833E-005 
70950 2.09236E-005 
71000 2.08641E-005 
71050 2.08049E-005 
71100 2.07459E-005 
71150 2.06871E-005 
71200 2.06285E-005 
71250 2.05701E-005 
71300 2.05119E-005 
71350 2.04539E-005 
71400 2.03961E-005 
71450 2.03385E-005 
71500 2.02811E-005 
71550 2.0224E-005 
71600 2.0167E-005 
71650 2.01102E-005 
71700 2.00537E-005 
71750 1.99973E-005 
71800 1.99411E-005 
71850 1.98852E-005 
71900 1.98294E-005 
71950 1.97738E-005 
72000 1.97184E-005 
72050 1.96632E-005 
72100 1.96082E-005 
72150 1.95534E-005 
72200 1.94988E-005 
72250 1.94443E-005 
72300 1.93901E-005 
72350 1.9336E-005 
72400 1.92822E-005 
72450 1.92285E-005 
72500 1.9175E-005 
72550 1.91217E-005 
72600 1.90686E-005 
72650 1.90156E-005 
72700 1.89629E-005 
72750 1.89103E-005 
72800 1.88579E-005 
72850 1.88057E-005 
72900 1.87537E-005 
72950 1.87019E-005 
73000 1.86502E-005 
73050 1.85987E-005 
73100 1.85474E-005 
73150 1.84963E-005 
73200 1.84453E-005 
73250 1.83945E-005 
73300 1.83439E-005 
73350 1.82935E-005 
73400 1.82432E-005 
73450 1.81931E-005 
73500 1.81432E-005 
73550 1.80935E-005 
73600 1.80439E-005 
73650 1.79946E-005 
73700 1.79453E-005 
73750 1.78963E-005 
73800 1.78474E-005 
73850 1.77987E-005 
73900 1.77502E-005 
73950 1.77018E-005 
74000 1.76536E-005 
74050 1.76055E-005 
74100 1.75576E-005 
74150 1.75099E-005 
74200 1.74623E-005 
74250 1.74149E-005 
74300 1.73677E-005 
74350 1.73206E-005 
74400 1.72736E-005 
74450 1.72269E-005 
74500 1.71802E-005 
74550 1.71338E-005 
74600 1.70875E-005 
74650 1.70413E-005 
74700 1.69954E-005 
74750 1.69495E-005 
74800 1.69038E-005 
74850 1.68583E-005 
74900 1.68129E-005 
74950 1.67677E-005 
75000 1.67227E-005 
75050 1.66778E-005 
75100 1.6633E-005 
75150 1.65884E-005 
75200 1.65439E-005 
75250 1.64996E-005 
75300 1.64555E-005 
75350 1.64115E-005 
75400 1.63676E-005 
75450 1.63239E-005 
75500 1.62803E-005 
75550 1.62369E-005 
75600 1.61936E-005 
75650 1.61505E-005 
75700 1.61075E-005 
75750 1.60646E-005 
75800 1.60219E-005 
75850 1.59793E-005 
75900 1.59369E-005 
75950 1.58946E-005 
76000 1.58525E-005 
76050 1.58105E-005 
76100 1.57686E-005 
76150 1.57269E-005 
76200 1.56853E-005 
76250 1.56439E-005 
76300 1.56026E-005 
76350 1.55614E-005 
76400 1.55204E-005 
76450 1.54794E-005 
76500 1.54387E-005 
76550 1.5398E-005 
76600 1.53575E-005 
76650 1.53172E-005 
76700 1.52769E-005 
76750 1.52368E-005 
76800 1.51969E-005 
76850 1.5157E-005 
76900 1.51173E-005 
76950 1.50777E-005 
77000 1.50383E-005 
77050 1.4999E-005 
77100 1.49598E-005 
77150 1.49207E-005 
77200 1.48818E-005 
77250 1.4843E-005 
77300 1.48043E-005 
77350 1.47657E-005 
77400 1.47273E-005 
77450 1.4689E-005 
77500 1.46508E-005 
77550 1.46128E-005 
77600 1.45748E-005 
77650 1.4537E-005 
77700 1.44993E-005 
77750 1.44618E-005 
77800 1.44243E-005 
77850 1.4387E-005 
77900 1.43498E-005 
77950 1.43127E-005 
78000 1.42757E-005 
78050 1.42389E-005 
78100 1.42022E-005 
78150 1.41656E-005 
78200 1.41291E-005 
78250 1.40927E-005 
78300 1.40565E-005 
78350 1.40203E-005 
78400 1.39843E-005 
78450 1.39484E-005 
78500 1.39126E-005 
78550 1.38769E-005 
78600 1.38414E-005 
78650 1.38059E-005 
78700 1.37706E-005 
78750 1.37353E-005 
78800 1.37002E-005 
78850 1.36652E-005 
78900 1.36303E-005 
78950 1.35956E-005 
79000 1.35609E-005 
79050 1.35263E-005 
79100 1.34919E-005 
79150 1.34575E-005 
79200 1.34233E-005 
79250 1.33892E-005 
79300 1.33552E-005 
79350 1.33213E-005 
79400 1.32875E-005 
79450 1.32538E-005 
79500 1.32203E-005 
79550 1.31868E-005 
79600 1.31535E-005 
79650 1.31202E-005 
79700 1.30871E-005 
79750 1.3054E-005 
79800 1.30211E-005 
79850 1.29883E-005 
79900 1.29555E-005 
79950 1.29229E-005 
80000 1.28904E-005 
80050 1.2858E-005 
80100 1.28256E-005 
80150 1.27934E-005 
80200 1.27613E-005 
80250 1.27293E-005 
80300 1.26974E-005 
80350 1.26656E-005 
80400 1.26339E-005 
80450 1.26022E-005 
80500 1.25707E-005 
80550 1.25393E-005 
80600 1.2508E-005 
80650 1.24768E-005 
80700 1.24456E-005 
80750 1.24146E-005 
80800 1.23837E-005 
80850 1.23529E-005 
80900 1.23221E-005 
80950 1.22915E-005 
81000 1.22609E-005 
81050 1.22305E-005 
81100 1.22001E-005 
81150 1.21699E-005 
81200 1.21397E-005 
81250 1.21096E-005 
81300 1.20796E-005 
81350 1.20498E-005 
81400 1.202E-005 
81450 1.19903E-005 
81500 1.19606E-005 
81550 1.19311E-005 
81600 1.19017E-005 
81650 1.18724E-005 
81700 1.18431E-005 
81750 1.18139E-005 
81800 1.17849E-005 
81850 1.17559E-005 
81900 1.1727E-005 
81950 1.16982E-005 
82000 1.16695E-005 
82050 1.16409E-005 
82100 1.16123E-005 
82150 1.15839E-005 
82200 1.15555E-005 
82250 1.15272E-005 
82300 1.14991E-005 
82350 1.1471E-005 
82400 1.14429E-005 
82450 1.1415E-005 
82500 1.13872E-005 
82550 1.13594E-005 
82600 1.13317E-005 
82650 1.13041E-005 
82700 1.12766E-005 
82750 1.12492E-005 
82800 1.12219E-005 
82850 1.11946E-005 
82900 1.11674E-005 
82950 1.11403E-005 
83000 1.11133E-005 
83050 1.10864E-005 
83100 1.10595E-005 
83150 1.10328E-005 
83200 1.10061E-005 
83250 1.09795E-005 
83300 1.09529E-005 
83350 1.09265E-005 
83400 1.09001E-005 
83450 1.08738E-005 
83500 1.08476E-005 
83550 1.08215E-005 
83600 1.07955E-005 
83650 1.07695E-005 
83700 1.07436E-005 
83750 1.07178E-005 
83800 1.0692E-005 
83850 1.06664E-005 
83900 1.06408E-005 
83950 1.06153E-005 
84000 1.05898E-005 
84050 1.05645E-005 
84100 1.05392E-005 
84150 1.0514E-005 
84200 1.04889E-005 
84250 1.04639E-005 
84300 1.04389E-005 
84350 1.0414E-005 
84400 1.03892E-005 
84450 1.03644E-005 
84500 1.03397E-005 
84550 1.03151E-005 
84600 1.02906E-005 
84650 1.02662E-005 
84700 1.02418E-005 
84750 1.02175E-005 
84800 1.01932E-005 
84850 1.01691E-005 
84900 1.0145E-005 
84950 1.01209E-005 
85000 1.0097E-005 
85050 1.00731E-005 
85100 1.00493E-005 
85150 1.00255E-005 
85200 1.00019E-005 
85250 9.97826E-006 
85300 9.95472E-006 
85350 9.93125E-006 
85400 9.90785E-006 
85450 9.88452E-006 
85500 9.86126E-006 
85550 9.83807E-006 
85600 9.81494E-006 
85650 9.79189E-006 
85700 9.7689E-006 
85750 9.74598E-006 
85800 9.72313E-006 
85850 9.70034E-006 
85900 9.67762E-006 
85950 9.65496E-006 
86000 9.63238E-006 
86050 9.60986E-006 
86100 9.5874E-006 
86150 9.56501E-006 
86200 9.54269E-006 
86250 9.52043E-006 
86300 9.49823E-006 
86350 9.4761E-006 
86400 9.45404E-006 
86450 9.43204E-006 
86500 9.4101E-006 
86550 9.38823E-006 
86600 9.36643E-006 
86650 9.34469E-006 
86700 9.32301E-006 
86750 9.30139E-006 
86800 9.27984E-006 
86850 9.25835E-006 
86900 9.23692E-006 
86950 9.21555E-006 
87000 9.19425E-006 
87050 9.17301E-006 
87100 9.15183E-006 
87150 9.13071E-006 
87200 9.10965E-006 
87250 9.08865E-006 
87300 9.06771E-006 
87350 9.04683E-006 
87400 9.02602E-006 
87450 9.00526E-006 
87500 8.98456E-006 
87550 8.96392E-006 
87600 8.94334E-006 
87650 8.92282E-006 
87700 8.90236E-006 
87750 8.88196E-006 
87800 8.86161E-006 
87850 8.84133E-006 
87900 8.8211E-006 
87950 8.80093E-006 
88000 8.78082E-006 
88050 8.76076E-006 
88100 8.74076E-006 
88150 8.72081E-006 
88200 8.70093E-006 
88250 8.6811E-006 
88300 8.66132E-006 
88350 8.6416E-006 
88400 8.62194E-006 
88450 8.60233E-006 
88500 8.58279E-006 
88550 8.56329E-006 
88600 8.54385E-006 
88650 8.52447E-006 
88700 8.50514E-006 
88750 8.48586E-006 
88800 8.46664E-006 
88850 8.44748E-006 
88900 8.42837E-006 
88950 8.40931E-006 
89000 8.39031E-006 
89050 8.37136E-006 
89100 8.35247E-006 
89150 8.33364E-006 
89200 8.31485E-006 
89250 8.29612E-006 
89300 8.27745E-006 
89350 8.25882E-006 
89400 8.24025E-006 
89450 8.22173E-006 
89500 8.20326E-006 
89550 8.18484E-006 
89600 8.16648E-006 
89650 8.14816E-006 
89700 8.1299E-006 
89750 8.11169E-006 
89800 8.09353E-006 
89850 8.07542E-006 
89900 8.05737E-006 
89950 8.03936E-006 
90000 8.0214E-006 
90050 8.00349E-006 
90100 7.98563E-006 
90150 7.96782E-006 
90200 7.95006E-006 
90250 7.93235E-006 
90300 7.91469E-006 
90350 7.89708E-006 
90400 7.87952E-006 
90450 7.862E-006 
90500 7.84454E-006 
90550 7.82712E-006 
90600 7.80975E-006 
90650 7.79243E-006 
90700 7.77516E-006 
90750 7.75794E-006 
90800 7.74076E-006 
90850 7.72363E-006 
90900 7.70655E-006 
90950 7.68952E-006 
91000 7.67253E-006 
91050 7.65559E-006 
91100 7.6387E-006 
91150 7.62185E-006 
91200 7.60505E-006 
91250 7.58829E-006 
91300 7.57159E-006 
91350 7.55492E-006 
91400 7.53831E-006 
91450 7.52174E-006 
91500 7.50521E-006 
91550 7.48873E-006 
91600 7.4723E-006 
91650 7.45591E-006 
91700 7.43957E-006 
91750 7.42327E-006 
91800 7.40701E-006 
91850 7.3908E-006 
91900 7.37464E-006 
91950 7.35851E-006 
92000 7.34244E-006 
92050 7.3264E-006 
92100 7.31041E-006 
92150 7.29447E-006 
92200 7.27857E-006 
92250 7.26271E-006 
92300 7.24689E-006 
92350 7.23112E-006 
92400 7.21539E-006 
92450 7.1997E-006 
92500 7.18405E-006 
92550 7.16845E-006 
92600 7.15289E-006 
92650 7.13738E-006 
92700 7.1219E-006 
92750 7.10647E-006 
92800 7.09107E-006 
92850 7.07572E-006 
92900 7.06042E-006 
92950 7.04515E-006 
93000 7.02992E-006 
93050 7.01474E-006 
93100 6.9996E-006 
93150 6.9845E-006 
93200 6.96944E-006 
93250 6.95442E-006 
93300 6.93944E-006 
93350 6.9245E-006 
93400 6.9096E-006 
93450 6.89474E-006 
93500 6.87992E-006 
93550 6.86514E-006 
93600 6.85041E-006 
93650 6.83571E-006 
93700 6.82104E-006 
93750 6.80642E-006 
93800 6.79184E-006 
93850 6.7773E-006 
93900 6.7628E-006 
93950 6.74833E-006 
94000 6.73391E-006 
94050 6.71952E-006 
94100 6.70517E-006 
94150 6.69086E-006 
94200 6.67659E-006 
94250 6.66235E-006 
94300 6.64815E-006 
94350 6.634E-006 
94400 6.61987E-006 
94450 6.60579E-006 
94500 6.59175E-006 
94550 6.57774E-006 
94600 6.56377E-006 
94650 6.54983E-006 
94700 6.53593E-006 
94750 6.52207E-006 
94800 6.50825E-006 
94850 6.49446E-006 
94900 6.48071E-006 
94950 6.467E-006 
95000 6.45332E-006 
95050 6.43968E-006 
95100 6.42607E-006 
95150 6.4125E-006 
95200 6.39896E-006 
95250 6.38546E-006 
95300 6.372E-006 
95350 6.35857E-006 
95400 6.34518E-006 
95450 6.33182E-006 
95500 6.3185E-006 
95550 6.30521E-006 
95600 6.29196E-006 
95650 6.27874E-006 
95700 6.26556E-006 
95750 6.25241E-006 
95800 6.23929E-006 
95850 6.22621E-006 
95900 6.21317E-006 
95950 6.20016E-006 
96000 6.18718E-006 
96050 6.17424E-006 
96100 6.16133E-006 
96150 6.14845E-006 
96200 6.13561E-006 
96250 6.1228E-006 
96300 6.11003E-006 
96350 6.09729E-006 
96400 6.08458E-006 
96450 6.0719E-006 
96500 6.05926E-006 
96550 6.04665E-006 
96600 6.03408E-006 
96650 6.02154E-006 
96700 6.00903E-006 
96750 5.99655E-006 
96800 5.98411E-006 
96850 5.9717E-006 
96900 5.95932E-006 
96950 5.94697E-006 
97000 5.93466E-006 
97050 5.92238E-006 
97100 5.91012E-006 
97150 5.8979E-006 
97200 5.88572E-006 
97250 5.87356E-006 
97300 5.86144E-006 
97350 5.84934E-006 
97400 5.83728E-006 
97450 5.82525E-006 
97500 5.81325E-006 
97550 5.80128E-006 
97600 5.78934E-006 
97650 5.77743E-006 
97700 5.76555E-006 
97750 5.75371E-006 
97800 5.74189E-006 
97850 5.7301E-006 
97900 5.71835E-006 
97950 5.70662E-006 
98000 5.69493E-006 
98050 5.68326E-006 
98100 5.67162E-006 
98150 5.66002E-006 
98200 5.64844E-006 
98250 5.63689E-006 
98300 5.62537E-006 
98350 5.61388E-006 
98400 5.60242E-006 
98450 5.59099E-006 
98500 5.57959E-006 
98550 5.56822E-006 
98600 5.55688E-006 
98650 5.54556E-006 
98700 5.53428E-006 
98750 5.52302E-006 
98800 5.51179E-006 
98850 5.50059E-006 
98900 5.48942E-006 
98950 5.47828E-006 
99000 5.46716E-006 
99050 5.45607E-006 
99100 5.44501E-006 
99150 5.43398E-006 
99200 5.42297E-006 
99250 5.41199E-006 
99300 5.40104E-006 
99350 5.39012E-006 
99400 5.37922E-006 
99450 5.36836E-006 
99500 5.35752E-006 
99550 5.34671E-006 
99600 5.33593E-006 
99650 5.32518E-006 
99700 5.31446E-006 
99750 5.30376E-006 
99800 5.29309E-006 
99850 5.28245E-006 
99900 5.27183E-006 
99950 5.26124E-006 
100000 5.25068E-006 
