#F U:\Beamline I20\I20-1_EDE\GDA-EDE\power-calculation\Si-3p75mrad.dat
#C Si 3.75mrad
#S 1 File written by xplot on Mon Sep 09 11:44:28 2013
#N 2
#L    Photon Energy [eV]  Intens after oe #1
50 0.996259 
100 0.937328 
150 0.952933 
200 0.960519 
250 0.962792 
300 0.964622 
350 0.966016 
400 0.967854 
450 0.969311 
500 0.970719 
550 0.971903 
600 0.973044 
650 0.974189 
700 0.975126 
750 0.975738 
800 0.97634 
850 0.977122 
900 0.977842 
950 0.978715 
1000 0.979502 
1050 0.980208 
1100 0.980796 
1150 0.981143 
1200 0.981464 
1250 0.981761 
1300 0.982022 
1350 0.982259 
1400 0.982462 
1450 0.982623 
1500 0.982742 
1550 0.982837 
1600 0.982849 
1650 0.982735 
1700 0.982414 
1750 0.981674 
1800 0.979379 
1850 0.702664 
1900 0.83136 
1950 0.846225 
2000 0.855095 
2050 0.861293 
2100 0.866167 
2150 0.870143 
2200 0.873524 
2250 0.876441 
2300 0.879057 
2350 0.881384 
2400 0.883511 
2450 0.885479 
2500 0.887288 
2550 0.888964 
2600 0.890543 
2650 0.892036 
2700 0.893444 
2750 0.894776 
2800 0.896033 
2850 0.897228 
2900 0.898376 
2950 0.899473 
3000 0.900522 
3050 0.901528 
3100 0.902495 
3150 0.903425 
3200 0.904319 
3250 0.905179 
3300 0.906008 
3350 0.906809 
3400 0.907581 
3450 0.908328 
3500 0.90905 
3550 0.909748 
3600 0.910412 
3650 0.911055 
3700 0.911677 
3750 0.912281 
3800 0.912869 
3850 0.91344 
3900 0.913979 
3950 0.9145 
4000 0.915006 
4050 0.915501 
4100 0.91598 
4150 0.916427 
4200 0.916863 
4250 0.91729 
4300 0.917702 
4350 0.918085 
4400 0.91846 
4450 0.918829 
4500 0.919168 
4550 0.919496 
4600 0.919819 
4650 0.920117 
4700 0.920399 
4750 0.920679 
4800 0.920934 
4850 0.921174 
4900 0.921411 
4950 0.92162 
5000 0.92182 
5050 0.922014 
5100 0.922178 
5150 0.922343 
5200 0.922485 
5250 0.922611 
5300 0.922734 
5350 0.922824 
5400 0.922915 
5450 0.922979 
5500 0.923033 
5550 0.923073 
5600 0.92309 
5650 0.923105 
5700 0.923084 
5750 0.923065 
5800 0.923007 
5850 0.922949 
5900 0.922858 
5950 0.922759 
6000 0.922633 
6050 0.922492 
6100 0.922325 
6150 0.922138 
6200 0.921926 
6250 0.921691 
6300 0.921429 
6350 0.921143 
6400 0.920829 
6450 0.920488 
6500 0.920107 
6550 0.919702 
6600 0.919254 
6650 0.918782 
6700 0.918255 
6750 0.917706 
6800 0.917089 
6850 0.916446 
6900 0.915729 
6950 0.914973 
7000 0.914146 
7050 0.913258 
7100 0.9123 
7150 0.911255 
7200 0.91014 
7250 0.908906 
7300 0.907587 
7350 0.906131 
7400 0.904553 
7450 0.902824 
7500 0.900917 
7550 0.898835 
7600 0.896497 
7650 0.893918 
7700 0.891022 
7750 0.887759 
7800 0.884073 
7850 0.879819 
7900 0.874919 
7950 0.869154 
8000 0.86228 
8050 0.853946 
8100 0.843514 
8150 0.830113 
8200 0.812114 
8250 0.786581 
8300 0.748149 
8350 0.689198 
8400 0.611891 
8450 0.536369 
8500 0.474063 
8550 0.424093 
8600 0.383445 
8650 0.349704 
8700 0.321161 
8750 0.296655 
8800 0.275342 
8850 0.256599 
8900 0.239989 
8950 0.225145 
9000 0.211786 
9050 0.199722 
9100 0.188752 
9150 0.178728 
9200 0.169568 
9250 0.161136 
9300 0.153348 
9350 0.146184 
9400 0.139528 
9450 0.133331 
9500 0.127644 
9550 0.122321 
9600 0.117329 
9650 0.112976 
9700 0.10888 
9750 0.105006 
9800 0.100668 
9850 0.0964722 
9900 0.0925254 
9950 0.0887389 
10000 0.0851411 
10050 0.0817473 
10100 0.0786698 
10150 0.0758857 
10200 0.0732404 
10250 0.070724 
10300 0.0683266 
10350 0.0660426 
10400 0.0638651 
10450 0.0617973 
10500 0.0598234 
10550 0.0579368 
10600 0.0561364 
10650 0.0544163 
10700 0.0527687 
10750 0.0511904 
10800 0.0496806 
10850 0.0482319 
10900 0.046841 
10950 0.045507 
11000 0.0442259 
11050 0.0429939 
11100 0.0418089 
11150 0.0406702 
11200 0.0395736 
11250 0.0385171 
11300 0.0374996 
11350 0.036519 
11400 0.0355731 
11450 0.0346602 
11500 0.0337801 
11550 0.0329301 
11600 0.0321089 
11650 0.0313154 
11700 0.0305488 
11750 0.0298073 
11800 0.0290899 
11850 0.028396 
11900 0.0277246 
11950 0.0270745 
12000 0.0264447 
12050 0.0258346 
12100 0.0252434 
12150 0.0246701 
12200 0.0241142 
12250 0.0235753 
12300 0.0230525 
12350 0.0225451 
12400 0.0220525 
12450 0.0215744 
12500 0.0211102 
12550 0.0206591 
12600 0.0202207 
12650 0.0197949 
12700 0.019381 
12750 0.0189785 
12800 0.018587 
12850 0.0182063 
12900 0.0178359 
12950 0.0174755 
13000 0.0171246 
13050 0.016783 
13100 0.0164505 
13150 0.0161266 
13200 0.0158111 
13250 0.0155037 
13300 0.0152043 
13350 0.0149124 
13400 0.0146279 
13450 0.0143505 
13500 0.0140801 
13550 0.0138163 
13600 0.013559 
13650 0.013308 
13700 0.013063 
13750 0.012824 
13800 0.0125907 
13850 0.0123629 
13900 0.0121405 
13950 0.0119234 
14000 0.0117114 
14050 0.0115042 
14100 0.0113018 
14150 0.0111042 
14200 0.010911 
14250 0.0107222 
14300 0.0105377 
14350 0.0103572 
14400 0.0101809 
14450 0.0100084 
14500 0.0098397 
14550 0.0096747 
14600 0.00951331 
14650 0.00935542 
14700 0.00920093 
14750 0.00904974 
14800 0.00890177 
14850 0.00875698 
14900 0.00861525 
14950 0.00847649 
15000 0.00834062 
15050 0.00820755 
15100 0.00807724 
15150 0.0079496 
15200 0.00782457 
15250 0.00770207 
15300 0.00758205 
15350 0.00746449 
15400 0.00734929 
15450 0.00723638 
15500 0.0071257 
15550 0.00701721 
15600 0.00691087 
15650 0.0068066 
15700 0.00670436 
15750 0.0066041 
15800 0.00650576 
15850 0.00640934 
15900 0.00631475 
15950 0.00622196 
16000 0.00613092 
16050 0.00604159 
16100 0.00595394 
16150 0.00586792 
16200 0.0057835 
16250 0.00570064 
16300 0.0056193 
16350 0.00553948 
16400 0.00546113 
16450 0.00538419 
16500 0.00530865 
16550 0.00523446 
16600 0.00516161 
16650 0.00509006 
16700 0.00501978 
16750 0.00495074 
16800 0.00488292 
16850 0.00481629 
16900 0.00475086 
16950 0.00468656 
17000 0.00462338 
17050 0.00456128 
17100 0.00450025 
17150 0.00444028 
17200 0.00438132 
17250 0.00432336 
17300 0.00426639 
17350 0.00421037 
17400 0.0041553 
17450 0.00410115 
17500 0.0040479 
17550 0.00399553 
17600 0.00394403 
17650 0.00389338 
17700 0.00384357 
17750 0.00379458 
17800 0.00374639 
17850 0.00369899 
17900 0.00365235 
17950 0.00360645 
18000 0.0035613 
18050 0.00351687 
18100 0.00347314 
18150 0.00343011 
18200 0.00338776 
18250 0.00334608 
18300 0.00330505 
18350 0.00326468 
18400 0.00322492 
18450 0.00318579 
18500 0.00314726 
18550 0.00310932 
18600 0.00307197 
18650 0.00303519 
18700 0.00299897 
18750 0.0029633 
18800 0.00292818 
18850 0.00289358 
18900 0.00285951 
18950 0.00282595 
19000 0.00279289 
19050 0.00276033 
19100 0.00272824 
19150 0.00269663 
19200 0.0026655 
19250 0.00263482 
19300 0.00260459 
19350 0.00257481 
19400 0.00254545 
19450 0.00251652 
19500 0.00248801 
19550 0.00245991 
19600 0.00243222 
19650 0.00240491 
19700 0.002378 
19750 0.00235148 
19800 0.00232532 
19850 0.00229954 
19900 0.00227412 
19950 0.00224906 
20000 0.00222435 
20050 0.00219998 
20100 0.00217596 
20150 0.00215227 
20200 0.0021289 
20250 0.00210587 
20300 0.00208314 
20350 0.00206073 
20400 0.00203862 
20450 0.00201682 
20500 0.00199532 
20550 0.0019741 
20600 0.00195318 
20650 0.00193253 
20700 0.00191216 
20750 0.00189207 
20800 0.00187224 
20850 0.00185267 
20900 0.00183337 
20950 0.00181432 
21000 0.00179552 
21050 0.00177696 
21100 0.00175865 
21150 0.00174058 
21200 0.00172275 
21250 0.00170514 
21300 0.00168777 
21350 0.00167062 
21400 0.00165369 
21450 0.00163697 
21500 0.00162048 
21550 0.00160419 
21600 0.00158812 
21650 0.00157224 
21700 0.00155657 
21750 0.0015411 
21800 0.00152582 
21850 0.00151073 
21900 0.00149584 
21950 0.00148113 
22000 0.0014666 
22050 0.00145225 
22100 0.00143808 
22150 0.00142409 
22200 0.00141027 
22250 0.00139662 
22300 0.00138313 
22350 0.00136981 
22400 0.00135666 
22450 0.00134366 
22500 0.00133082 
22550 0.00131813 
22600 0.0013056 
22650 0.00129322 
22700 0.00128099 
22750 0.0012689 
22800 0.00125696 
22850 0.00124516 
22900 0.0012335 
22950 0.00122198 
23000 0.00121059 
23050 0.00119934 
23100 0.00118822 
23150 0.00117723 
23200 0.00116637 
23250 0.00115564 
23300 0.00114503 
23350 0.00113455 
23400 0.00112418 
23450 0.00111394 
23500 0.00110382 
23550 0.00109381 
23600 0.00108391 
23650 0.00107413 
23700 0.00106447 
23750 0.00105491 
23800 0.00104546 
23850 0.00103612 
23900 0.00102688 
23950 0.00101775 
24000 0.00100872 
24050 0.000999785 
24100 0.000990954 
24150 0.000982222 
24200 0.000973586 
24250 0.000965046 
24300 0.000956601 
24350 0.000948249 
24400 0.000939991 
24450 0.000931824 
24500 0.000923747 
24550 0.000915758 
24600 0.000907856 
24650 0.00090004 
24700 0.000892309 
24750 0.000884661 
24800 0.000877099 
24850 0.000869618 
24900 0.000862217 
24950 0.000854896 
25000 0.000847653 
25050 0.000840488 
25100 0.000833398 
25150 0.000826384 
25200 0.000819446 
25250 0.00081258 
25300 0.000805787 
25350 0.000799066 
25400 0.000792415 
25450 0.000785834 
25500 0.000779322 
25550 0.000772878 
25600 0.000766501 
25650 0.000760191 
25700 0.000753946 
25750 0.000747766 
25800 0.000741649 
25850 0.000735596 
25900 0.000729605 
25950 0.000723676 
26000 0.000717807 
26050 0.000711998 
26100 0.000706249 
26150 0.000700558 
26200 0.000694925 
26250 0.000689349 
26300 0.000683829 
26350 0.000678365 
26400 0.000672957 
26450 0.000667603 
26500 0.000662303 
26550 0.000657057 
26600 0.000651862 
26650 0.00064672 
26700 0.000641628 
26750 0.000636587 
26800 0.000631596 
26850 0.000626654 
26900 0.000621761 
26950 0.000616916 
27000 0.000612119 
27050 0.000607368 
27100 0.000602665 
27150 0.000598006 
27200 0.000593393 
27250 0.000588825 
27300 0.000584302 
27350 0.000579822 
27400 0.000575386 
27450 0.000570991 
27500 0.00056664 
27550 0.00056233 
27600 0.000558062 
27650 0.000553834 
27700 0.000549646 
27750 0.0005455 
27800 0.000541392 
27850 0.000537324 
27900 0.000533294 
27950 0.000529302 
28000 0.000525348 
28050 0.000521431 
28100 0.000517551 
28150 0.000513707 
28200 0.000509899 
28250 0.000506127 
28300 0.000502389 
28350 0.000498687 
28400 0.000495018 
28450 0.000491384 
28500 0.000487784 
28550 0.000484216 
28600 0.000480681 
28650 0.000477179 
28700 0.000473709 
28750 0.000470271 
28800 0.000466864 
28850 0.000463488 
28900 0.000460143 
28950 0.000456828 
29000 0.000453543 
29050 0.000450288 
29100 0.000447065 
29150 0.000443871 
29200 0.000440706 
29250 0.00043757 
29300 0.000434461 
29350 0.00043138 
29400 0.000428327 
29450 0.000425301 
29500 0.000422302 
29550 0.000419327 
29600 0.000416376 
29650 0.000413451 
29700 0.000410552 
29750 0.000407679 
29800 0.000404831 
29850 0.000402008 
29900 0.00039921 
29950 0.000396436 
30000 0.000393686 
30050 0.000391014 
30100 0.000388366 
30150 0.000385739 
30200 0.000383136 
30250 0.000380554 
30300 0.000377995 
30350 0.000375457 
30400 0.000372941 
30450 0.000370396 
30500 0.000367872 
30550 0.00036537 
30600 0.00036289 
30650 0.00036043 
30700 0.000357992 
30750 0.000355574 
30800 0.000353177 
30850 0.0003508 
30900 0.000348444 
30950 0.000346108 
31000 0.000343791 
31050 0.000341494 
31100 0.000339216 
31150 0.000336957 
31200 0.000334717 
31250 0.000332495 
31300 0.000330291 
31350 0.000328106 
31400 0.000325939 
31450 0.00032379 
31500 0.000321659 
31550 0.000319546 
31600 0.000317451 
31650 0.000315373 
31700 0.000313312 
31750 0.000311267 
31800 0.00030924 
31850 0.000307229 
31900 0.000305235 
31950 0.000303257 
32000 0.000301296 
32050 0.00029935 
32100 0.00029742 
32150 0.000295506 
32200 0.000293607 
32250 0.000291724 
32300 0.000289856 
32350 0.000288002 
32400 0.000286163 
32450 0.000284339 
32500 0.000282529 
32550 0.000280734 
32600 0.000278954 
32650 0.000277187 
32700 0.000275434 
32750 0.000273696 
32800 0.000271971 
32850 0.00027026 
32900 0.000268562 
32950 0.000266878 
33000 0.000265207 
33050 0.000263549 
33100 0.000261905 
33150 0.000260273 
33200 0.000258655 
33250 0.000257049 
33300 0.000255455 
33350 0.000253874 
33400 0.000252305 
33450 0.000250748 
33500 0.000249203 
33550 0.000247671 
33600 0.00024615 
33650 0.00024464 
33700 0.000243143 
33750 0.000241657 
33800 0.000240182 
33850 0.000238719 
33900 0.000237267 
33950 0.000235826 
34000 0.000234396 
34050 0.000232977 
34100 0.000231568 
34150 0.00023017 
34200 0.000228783 
34250 0.000227406 
34300 0.00022604 
34350 0.000224684 
34400 0.000223338 
34450 0.000222003 
34500 0.000220677 
34550 0.000219361 
34600 0.000218056 
34650 0.00021676 
34700 0.000215474 
34750 0.000214198 
34800 0.000212931 
34850 0.000211673 
34900 0.000210425 
34950 0.000209185 
35000 0.000207956 
35050 0.000206735 
35100 0.000205523 
35150 0.00020432 
35200 0.000203126 
35250 0.00020194 
35300 0.000200764 
35350 0.000199596 
35400 0.000198436 
35450 0.000197285 
35500 0.000196142 
35550 0.000195008 
35600 0.000193881 
35650 0.000192763 
35700 0.000191653 
35750 0.000190551 
35800 0.000189457 
35850 0.000188371 
35900 0.000187293 
35950 0.000186222 
36000 0.000185159 
36050 0.000184104 
36100 0.000183056 
36150 0.000182016 
36200 0.000180983 
36250 0.000179958 
36300 0.00017894 
36350 0.000177929 
36400 0.000176925 
36450 0.000175928 
36500 0.000174938 
36550 0.000173956 
36600 0.00017298 
36650 0.000172011 
36700 0.000171049 
36750 0.000170094 
36800 0.000169146 
36850 0.000168204 
36900 0.000167268 
36950 0.00016634 
37000 0.000165417 
37050 0.000164501 
37100 0.000163592 
37150 0.000162689 
37200 0.000161792 
37250 0.000160902 
37300 0.000160017 
37350 0.000159139 
37400 0.000158267 
37450 0.0001574 
37500 0.00015654 
37550 0.000155685 
37600 0.000154836 
37650 0.000153993 
37700 0.000153156 
37750 0.000152324 
37800 0.000151498 
37850 0.000150678 
37900 0.000149863 
37950 0.000149054 
38000 0.00014825 
38050 0.000147452 
38100 0.00014666 
38150 0.000145872 
38200 0.00014509 
38250 0.000144313 
38300 0.000143542 
38350 0.000142775 
38400 0.000142014 
38450 0.000141258 
38500 0.000140507 
38550 0.000139761 
38600 0.000139019 
38650 0.000138283 
38700 0.000137552 
38750 0.000136825 
38800 0.000136103 
38850 0.000135387 
38900 0.000134674 
38950 0.000133967 
39000 0.000133264 
39050 0.000132566 
39100 0.000131872 
39150 0.000131183 
39200 0.000130498 
39250 0.000129818 
39300 0.000129143 
39350 0.000128471 
39400 0.000127804 
39450 0.000127142 
39500 0.000126484 
39550 0.00012583 
39600 0.00012518 
39650 0.000124534 
39700 0.000123893 
39750 0.000123256 
39800 0.000122623 
39850 0.000121994 
39900 0.000121369 
39950 0.000120748 
40000 0.000120131 
40050 0.000119518 
40100 0.000118909 
40150 0.000118304 
40200 0.000117703 
40250 0.000117105 
40300 0.000116512 
40350 0.000115922 
40400 0.000115336 
40450 0.000114753 
40500 0.000114175 
40550 0.0001136 
40600 0.000113028 
40650 0.000112461 
40700 0.000111896 
40750 0.000111336 
40800 0.000110779 
40850 0.000110225 
40900 0.000109675 
40950 0.000109128 
41000 0.000108585 
41050 0.000108045 
41100 0.000107508 
41150 0.000106975 
41200 0.000106445 
41250 0.000105918 
41300 0.000105395 
41350 0.000104875 
41400 0.000104358 
41450 0.000103844 
41500 0.000103334 
41550 0.000102826 
41600 0.000102322 
41650 0.000101821 
41700 0.000101323 
41750 0.000100828 
41800 0.000100336 
41850 9.98466E-005 
41900 9.93605E-005 
41950 9.88773E-005 
42000 9.8397E-005 
42050 9.79196E-005 
42100 9.74451E-005 
42150 9.69735E-005 
42200 9.65048E-005 
42250 9.60388E-005 
42300 9.55758E-005 
42350 9.51156E-005 
42400 9.46583E-005 
42450 9.42037E-005 
42500 9.37518E-005 
42550 9.33027E-005 
42600 9.28563E-005 
42650 9.24125E-005 
42700 9.19714E-005 
42750 9.15329E-005 
42800 9.1097E-005 
42850 9.06638E-005 
42900 9.02331E-005 
42950 8.9805E-005 
43000 8.93794E-005 
43050 8.89565E-005 
43100 8.85362E-005 
43150 8.81183E-005 
43200 8.77029E-005 
43250 8.72899E-005 
43300 8.68794E-005 
43350 8.64713E-005 
43400 8.60655E-005 
43450 8.56622E-005 
43500 8.52613E-005 
43550 8.48627E-005 
43600 8.44664E-005 
43650 8.40724E-005 
43700 8.36808E-005 
43750 8.32914E-005 
43800 8.29043E-005 
43850 8.25194E-005 
43900 8.21367E-005 
43950 8.17563E-005 
44000 8.1378E-005 
44050 8.1002E-005 
44100 8.06281E-005 
44150 8.02564E-005 
44200 7.98868E-005 
44250 7.95194E-005 
44300 7.91541E-005 
44350 7.87909E-005 
44400 7.84297E-005 
44450 7.80707E-005 
44500 7.77137E-005 
44550 7.73587E-005 
44600 7.70058E-005 
44650 7.66549E-005 
44700 7.6306E-005 
44750 7.5959E-005 
44800 7.56141E-005 
44850 7.52711E-005 
44900 7.49301E-005 
44950 7.4591E-005 
45000 7.42538E-005 
45050 7.39185E-005 
45100 7.35851E-005 
45150 7.32536E-005 
45200 7.2924E-005 
45250 7.25962E-005 
45300 7.22703E-005 
45350 7.19462E-005 
45400 7.1624E-005 
45450 7.13035E-005 
45500 7.09849E-005 
45550 7.0668E-005 
45600 7.03529E-005 
45650 7.00395E-005 
45700 6.97279E-005 
45750 6.94181E-005 
45800 6.91099E-005 
45850 6.88035E-005 
45900 6.84988E-005 
45950 6.81957E-005 
46000 6.78944E-005 
46050 6.75947E-005 
46100 6.72967E-005 
46150 6.70004E-005 
46200 6.67056E-005 
46250 6.64125E-005 
46300 6.6121E-005 
46350 6.58312E-005 
46400 6.55429E-005 
46450 6.52561E-005 
46500 6.4971E-005 
46550 6.46875E-005 
46600 6.44056E-005 
46650 6.41252E-005 
46700 6.38463E-005 
46750 6.35689E-005 
46800 6.32931E-005 
46850 6.30187E-005 
46900 6.27459E-005 
46950 6.24745E-005 
47000 6.22046E-005 
47050 6.1936E-005 
47100 6.16689E-005 
47150 6.14033E-005 
47200 6.11391E-005 
47250 6.08763E-005 
47300 6.06149E-005 
47350 6.03549E-005 
47400 6.00964E-005 
47450 5.98392E-005 
47500 5.95833E-005 
47550 5.93289E-005 
47600 5.90758E-005 
47650 5.88241E-005 
47700 5.85737E-005 
47750 5.83246E-005 
47800 5.80769E-005 
47850 5.78305E-005 
47900 5.75854E-005 
47950 5.73416E-005 
48000 5.70991E-005 
48050 5.68579E-005 
48100 5.66181E-005 
48150 5.63795E-005 
48200 5.61421E-005 
48250 5.5906E-005 
48300 5.56712E-005 
48350 5.54376E-005 
48400 5.52052E-005 
48450 5.4974E-005 
48500 5.47441E-005 
48550 5.45153E-005 
48600 5.42878E-005 
48650 5.40614E-005 
48700 5.38362E-005 
48750 5.36122E-005 
48800 5.33893E-005 
48850 5.31677E-005 
48900 5.29471E-005 
48950 5.27277E-005 
49000 5.25095E-005 
49050 5.22923E-005 
49100 5.20762E-005 
49150 5.18613E-005 
49200 5.16474E-005 
49250 5.14347E-005 
49300 5.12231E-005 
49350 5.10125E-005 
49400 5.0803E-005 
49450 5.05947E-005 
49500 5.03873E-005 
49550 5.01812E-005 
49600 4.9976E-005 
49650 4.97719E-005 
49700 4.95689E-005 
49750 4.93669E-005 
49800 4.91659E-005 
49850 4.8966E-005 
49900 4.87671E-005 
49950 4.85691E-005 
50000 4.83722E-005 
50050 4.81763E-005 
50100 4.79814E-005 
50150 4.77875E-005 
50200 4.75945E-005 
50250 4.74025E-005 
50300 4.72116E-005 
50350 4.70215E-005 
50400 4.68324E-005 
50450 4.66443E-005 
50500 4.64571E-005 
50550 4.62709E-005 
50600 4.60855E-005 
50650 4.59012E-005 
50700 4.57177E-005 
50750 4.55351E-005 
50800 4.53535E-005 
50850 4.51728E-005 
50900 4.4993E-005 
50950 4.48141E-005 
51000 4.4636E-005 
51050 4.44589E-005 
51100 4.42827E-005 
51150 4.41074E-005 
51200 4.39329E-005 
51250 4.37593E-005 
51300 4.35866E-005 
51350 4.34147E-005 
51400 4.32437E-005 
51450 4.30735E-005 
51500 4.29041E-005 
51550 4.27355E-005 
51600 4.25678E-005 
51650 4.24008E-005 
51700 4.22347E-005 
51750 4.20694E-005 
51800 4.19049E-005 
51850 4.17413E-005 
51900 4.15784E-005 
51950 4.14163E-005 
52000 4.1255E-005 
52050 4.10945E-005 
52100 4.09348E-005 
52150 4.07758E-005 
52200 4.06176E-005 
52250 4.04602E-005 
52300 4.03035E-005 
52350 4.01477E-005 
52400 3.99925E-005 
52450 3.98381E-005 
52500 3.96845E-005 
52550 3.95316E-005 
52600 3.93794E-005 
52650 3.9228E-005 
52700 3.90773E-005 
52750 3.89273E-005 
52800 3.87781E-005 
52850 3.86295E-005 
52900 3.84817E-005 
52950 3.83346E-005 
53000 3.81882E-005 
53050 3.80424E-005 
53100 3.78975E-005 
53150 3.77531E-005 
53200 3.76095E-005 
53250 3.74665E-005 
53300 3.73242E-005 
53350 3.71827E-005 
53400 3.70417E-005 
53450 3.69015E-005 
53500 3.67619E-005 
53550 3.6623E-005 
53600 3.64847E-005 
53650 3.63472E-005 
53700 3.62103E-005 
53750 3.6074E-005 
53800 3.59383E-005 
53850 3.58033E-005 
53900 3.5669E-005 
53950 3.55353E-005 
54000 3.54022E-005 
54050 3.52696E-005 
54100 3.51377E-005 
54150 3.50064E-005 
54200 3.48757E-005 
54250 3.47457E-005 
54300 3.46162E-005 
54350 3.44873E-005 
54400 3.43591E-005 
54450 3.42314E-005 
54500 3.41044E-005 
54550 3.39779E-005 
54600 3.3852E-005 
54650 3.37267E-005 
54700 3.36021E-005 
54750 3.34781E-005 
54800 3.33546E-005 
54850 3.32318E-005 
54900 3.3109E-005 
54950 3.29873E-005 
55000 3.28661E-005 
55050 3.27453E-005 
55100 3.26251E-005 
55150 3.25054E-005 
55200 3.23863E-005 
55250 3.22678E-005 
55300 3.21497E-005 
55350 3.20324E-005 
55400 3.19156E-005 
55450 3.17993E-005 
55500 3.16836E-005 
55550 3.15683E-005 
55600 3.14534E-005 
55650 3.13392E-005 
55700 3.12254E-005 
55750 3.11121E-005 
55800 3.09994E-005 
55850 3.08871E-005 
55900 3.07754E-005 
55950 3.06642E-005 
56000 3.05535E-005 
56050 3.04433E-005 
56100 3.03336E-005 
56150 3.02244E-005 
56200 3.01157E-005 
56250 3.00075E-005 
56300 2.98997E-005 
56350 2.97925E-005 
56400 2.96857E-005 
56450 2.95794E-005 
56500 2.94736E-005 
56550 2.93683E-005 
56600 2.92634E-005 
56650 2.9159E-005 
56700 2.90551E-005 
56750 2.89516E-005 
56800 2.88486E-005 
56850 2.8746E-005 
56900 2.8644E-005 
56950 2.85423E-005 
57000 2.84412E-005 
57050 2.83404E-005 
57100 2.82402E-005 
57150 2.81403E-005 
57200 2.80409E-005 
57250 2.7942E-005 
57300 2.78435E-005 
57350 2.77454E-005 
57400 2.76477E-005 
57450 2.75505E-005 
57500 2.74537E-005 
57550 2.73574E-005 
57600 2.72614E-005 
57650 2.71659E-005 
57700 2.70708E-005 
57750 2.69761E-005 
57800 2.68818E-005 
57850 2.6788E-005 
57900 2.66945E-005 
57950 2.66015E-005 
58000 2.65088E-005 
58050 2.64166E-005 
58100 2.63248E-005 
58150 2.62333E-005 
58200 2.61423E-005 
58250 2.60517E-005 
58300 2.59614E-005 
58350 2.58716E-005 
58400 2.57821E-005 
58450 2.5693E-005 
58500 2.56043E-005 
58550 2.5516E-005 
58600 2.54281E-005 
58650 2.53405E-005 
58700 2.52534E-005 
58750 2.51666E-005 
58800 2.50802E-005 
58850 2.49941E-005 
58900 2.49084E-005 
58950 2.48231E-005 
59000 2.47382E-005 
59050 2.46536E-005 
59100 2.45694E-005 
59150 2.44855E-005 
59200 2.4402E-005 
59250 2.43189E-005 
59300 2.42361E-005 
59350 2.41536E-005 
59400 2.40715E-005 
59450 2.39898E-005 
59500 2.39084E-005 
59550 2.38273E-005 
59600 2.37466E-005 
59650 2.36663E-005 
59700 2.35862E-005 
59750 2.35066E-005 
59800 2.34272E-005 
59850 2.33482E-005 
59900 2.32695E-005 
59950 2.31911E-005 
60000 2.31131E-005 
60050 2.30354E-005 
60100 2.2958E-005 
60150 2.2881E-005 
60200 2.28043E-005 
60250 2.27279E-005 
60300 2.26518E-005 
60350 2.25761E-005 
60400 2.25006E-005 
60450 2.24255E-005 
60500 2.23507E-005 
60550 2.22762E-005 
60600 2.2202E-005 
60650 2.21282E-005 
60700 2.20546E-005 
60750 2.19813E-005 
60800 2.19084E-005 
60850 2.18358E-005 
60900 2.17634E-005 
60950 2.16914E-005 
61000 2.16196E-005 
61050 2.15482E-005 
61100 2.1477E-005 
61150 2.14062E-005 
61200 2.13356E-005 
61250 2.12654E-005 
61300 2.11954E-005 
61350 2.11257E-005 
61400 2.10563E-005 
61450 2.09872E-005 
61500 2.09183E-005 
61550 2.08498E-005 
61600 2.07815E-005 
61650 2.07135E-005 
61700 2.06457E-005 
61750 2.05783E-005 
61800 2.05111E-005 
61850 2.04442E-005 
61900 2.03776E-005 
61950 2.03112E-005 
62000 2.02451E-005 
62050 2.01793E-005 
62100 2.01138E-005 
62150 2.00485E-005 
62200 1.99835E-005 
62250 1.99187E-005 
62300 1.98542E-005 
62350 1.979E-005 
62400 1.9726E-005 
62450 1.96623E-005 
62500 1.95989E-005 
62550 1.95357E-005 
62600 1.94728E-005 
62650 1.94101E-005 
62700 1.93477E-005 
62750 1.92855E-005 
62800 1.92236E-005 
62850 1.91619E-005 
62900 1.91005E-005 
62950 1.90393E-005 
63000 1.89783E-005 
63050 1.89176E-005 
63100 1.88572E-005 
63150 1.87969E-005 
63200 1.8737E-005 
63250 1.86772E-005 
63300 1.86177E-005 
63350 1.85584E-005 
63400 1.84994E-005 
63450 1.84406E-005 
63500 1.8382E-005 
63550 1.83237E-005 
63600 1.82656E-005 
63650 1.82077E-005 
63700 1.81501E-005 
63750 1.80927E-005 
63800 1.80355E-005 
63850 1.79786E-005 
63900 1.79218E-005 
63950 1.78653E-005 
64000 1.7809E-005 
64050 1.7753E-005 
64100 1.76971E-005 
64150 1.76415E-005 
64200 1.75861E-005 
64250 1.75309E-005 
64300 1.7476E-005 
64350 1.74212E-005 
64400 1.73667E-005 
64450 1.73124E-005 
64500 1.72583E-005 
64550 1.72044E-005 
64600 1.71507E-005 
64650 1.70972E-005 
64700 1.7044E-005 
64750 1.69909E-005 
64800 1.69381E-005 
64850 1.68854E-005 
64900 1.6833E-005 
64950 1.67808E-005 
65000 1.67287E-005 
65050 1.66769E-005 
65100 1.66253E-005 
65150 1.65738E-005 
65200 1.65226E-005 
65250 1.64715E-005 
65300 1.64207E-005 
65350 1.63701E-005 
65400 1.63196E-005 
65450 1.62694E-005 
65500 1.62193E-005 
65550 1.61694E-005 
65600 1.61198E-005 
65650 1.60703E-005 
65700 1.6021E-005 
65750 1.59719E-005 
65800 1.59229E-005 
65850 1.58742E-005 
65900 1.58257E-005 
65950 1.57773E-005 
66000 1.57291E-005 
66050 1.56812E-005 
66100 1.56334E-005 
66150 1.55857E-005 
66200 1.55383E-005 
66250 1.5491E-005 
66300 1.54439E-005 
66350 1.5397E-005 
66400 1.53503E-005 
66450 1.53038E-005 
66500 1.52574E-005 
66550 1.52112E-005 
66600 1.51652E-005 
66650 1.51193E-005 
66700 1.50737E-005 
66750 1.50282E-005 
66800 1.49828E-005 
66850 1.49377E-005 
66900 1.48927E-005 
66950 1.48479E-005 
67000 1.48032E-005 
67050 1.47587E-005 
67100 1.47144E-005 
67150 1.46703E-005 
67200 1.46263E-005 
67250 1.45825E-005 
67300 1.45388E-005 
67350 1.44953E-005 
67400 1.4452E-005 
67450 1.44088E-005 
67500 1.43659E-005 
67550 1.4323E-005 
67600 1.42804E-005 
67650 1.42379E-005 
67700 1.41955E-005 
67750 1.41533E-005 
67800 1.41113E-005 
67850 1.40694E-005 
67900 1.40277E-005 
67950 1.39861E-005 
68000 1.39447E-005 
68050 1.39034E-005 
68100 1.38623E-005 
68150 1.38213E-005 
68200 1.37805E-005 
68250 1.37398E-005 
68300 1.36993E-005 
68350 1.36589E-005 
68400 1.36187E-005 
68450 1.35787E-005 
68500 1.35387E-005 
68550 1.3499E-005 
68600 1.34593E-005 
68650 1.34198E-005 
68700 1.33805E-005 
68750 1.33413E-005 
68800 1.33023E-005 
68850 1.32633E-005 
68900 1.32246E-005 
68950 1.31859E-005 
69000 1.31475E-005 
69050 1.31091E-005 
69100 1.30709E-005 
69150 1.30328E-005 
69200 1.29949E-005 
69250 1.29571E-005 
69300 1.29195E-005 
69350 1.2882E-005 
69400 1.28446E-005 
69450 1.28073E-005 
69500 1.27702E-005 
69550 1.27333E-005 
69600 1.26964E-005 
69650 1.26597E-005 
69700 1.26231E-005 
69750 1.25867E-005 
69800 1.25504E-005 
69850 1.25142E-005 
69900 1.24782E-005 
69950 1.24423E-005 
70000 1.24065E-005 
70050 1.23708E-005 
70100 1.23353E-005 
70150 1.22999E-005 
70200 1.22646E-005 
70250 1.22295E-005 
70300 1.21945E-005 
70350 1.21596E-005 
70400 1.21248E-005 
70450 1.20902E-005 
70500 1.20557E-005 
70550 1.20213E-005 
70600 1.1987E-005 
70650 1.19528E-005 
70700 1.19188E-005 
70750 1.18849E-005 
70800 1.18511E-005 
70850 1.18174E-005 
70900 1.17839E-005 
70950 1.17505E-005 
71000 1.17172E-005 
71050 1.1684E-005 
71100 1.16509E-005 
71150 1.16179E-005 
71200 1.15851E-005 
71250 1.15524E-005 
71300 1.15198E-005 
71350 1.14873E-005 
71400 1.14549E-005 
71450 1.14226E-005 
71500 1.13905E-005 
71550 1.13585E-005 
71600 1.13265E-005 
71650 1.12947E-005 
71700 1.1263E-005 
71750 1.12314E-005 
71800 1.11999E-005 
71850 1.11686E-005 
71900 1.11373E-005 
71950 1.11062E-005 
72000 1.10751E-005 
72050 1.10442E-005 
72100 1.10134E-005 
72150 1.09826E-005 
72200 1.0952E-005 
72250 1.09215E-005 
72300 1.08911E-005 
72350 1.08608E-005 
72400 1.08306E-005 
72450 1.08006E-005 
72500 1.07706E-005 
72550 1.07407E-005 
72600 1.07109E-005 
72650 1.06813E-005 
72700 1.06517E-005 
72750 1.06222E-005 
72800 1.05929E-005 
72850 1.05636E-005 
72900 1.05345E-005 
72950 1.05054E-005 
73000 1.04764E-005 
73050 1.04476E-005 
73100 1.04188E-005 
73150 1.03901E-005 
73200 1.03616E-005 
73250 1.03331E-005 
73300 1.03048E-005 
73350 1.02765E-005 
73400 1.02483E-005 
73450 1.02202E-005 
73500 1.01922E-005 
73550 1.01644E-005 
73600 1.01366E-005 
73650 1.01089E-005 
73700 1.00813E-005 
73750 1.00538E-005 
73800 1.00264E-005 
73850 9.99912E-006 
73900 9.9719E-006 
73950 9.94478E-006 
74000 9.91775E-006 
74050 9.89081E-006 
74100 9.86396E-006 
74150 9.83721E-006 
74200 9.81054E-006 
74250 9.78396E-006 
74300 9.75747E-006 
74350 9.73106E-006 
74400 9.70475E-006 
74450 9.67852E-006 
74500 9.65239E-006 
74550 9.62634E-006 
74600 9.60038E-006 
74650 9.57451E-006 
74700 9.54872E-006 
74750 9.52302E-006 
74800 9.49741E-006 
74850 9.47188E-006 
74900 9.44644E-006 
74950 9.42109E-006 
75000 9.39582E-006 
75050 9.37064E-006 
75100 9.34555E-006 
75150 9.32054E-006 
75200 9.29561E-006 
75250 9.27076E-006 
75300 9.246E-006 
75350 9.22132E-006 
75400 9.19673E-006 
75450 9.17221E-006 
75500 9.14778E-006 
75550 9.12343E-006 
75600 9.09916E-006 
75650 9.07497E-006 
75700 9.05086E-006 
75750 9.02683E-006 
75800 9.00288E-006 
75850 8.97901E-006 
75900 8.95521E-006 
75950 8.9315E-006 
76000 8.90787E-006 
76050 8.88431E-006 
76100 8.86084E-006 
76150 8.83744E-006 
76200 8.81412E-006 
76250 8.79087E-006 
76300 8.7677E-006 
76350 8.74461E-006 
76400 8.72159E-006 
76450 8.69865E-006 
76500 8.67579E-006 
76550 8.653E-006 
76600 8.63028E-006 
76650 8.60764E-006 
76700 8.58508E-006 
76750 8.56259E-006 
76800 8.54017E-006 
76850 8.51782E-006 
76900 8.49555E-006 
76950 8.47335E-006 
77000 8.45123E-006 
77050 8.42917E-006 
77100 8.40719E-006 
77150 8.38528E-006 
77200 8.36344E-006 
77250 8.34167E-006 
77300 8.31997E-006 
77350 8.29834E-006 
77400 8.27679E-006 
77450 8.2553E-006 
77500 8.23388E-006 
77550 8.21253E-006 
77600 8.19125E-006 
77650 8.17004E-006 
77700 8.1489E-006 
77750 8.12783E-006 
77800 8.10682E-006 
77850 8.08589E-006 
77900 8.06502E-006 
77950 8.04421E-006 
78000 8.02348E-006 
78050 8.00281E-006 
78100 7.98221E-006 
78150 7.96167E-006 
78200 7.9412E-006 
78250 7.9208E-006 
78300 7.90046E-006 
78350 7.88019E-006 
78400 7.85998E-006 
78450 7.83984E-006 
78500 7.81976E-006 
78550 7.79975E-006 
78600 7.7798E-006 
78650 7.75991E-006 
78700 7.74008E-006 
78750 7.72032E-006 
78800 7.70062E-006 
78850 7.68098E-006 
78900 7.6614E-006 
78950 7.64189E-006 
79000 7.62244E-006 
79050 7.60305E-006 
79100 7.58372E-006 
79150 7.56446E-006 
79200 7.54525E-006 
79250 7.52611E-006 
79300 7.50702E-006 
79350 7.48801E-006 
79400 7.46906E-006 
79450 7.45016E-006 
79500 7.43133E-006 
79550 7.41255E-006 
79600 7.39383E-006 
79650 7.37518E-006 
79700 7.35658E-006 
79750 7.33804E-006 
79800 7.31956E-006 
79850 7.30114E-006 
79900 7.28277E-006 
79950 7.26446E-006 
80000 7.24621E-006 
80050 7.22802E-006 
80100 7.20989E-006 
80150 7.19181E-006 
80200 7.17379E-006 
80250 7.15583E-006 
80300 7.13792E-006 
80350 7.12006E-006 
80400 7.10227E-006 
80450 7.08453E-006 
80500 7.06684E-006 
80550 7.04921E-006 
80600 7.03164E-006 
80650 7.01412E-006 
80700 6.99665E-006 
80750 6.97924E-006 
80800 6.96188E-006 
80850 6.94458E-006 
80900 6.92733E-006 
80950 6.91013E-006 
81000 6.89299E-006 
81050 6.8759E-006 
81100 6.85886E-006 
81150 6.84188E-006 
81200 6.82495E-006 
81250 6.80807E-006 
81300 6.79124E-006 
81350 6.77447E-006 
81400 6.75775E-006 
81450 6.74108E-006 
81500 6.72446E-006 
81550 6.70789E-006 
81600 6.69137E-006 
81650 6.6749E-006 
81700 6.65849E-006 
81750 6.64212E-006 
81800 6.62581E-006 
81850 6.60954E-006 
81900 6.59333E-006 
81950 6.57716E-006 
82000 6.56105E-006 
82050 6.54498E-006 
82100 6.52896E-006 
82150 6.51299E-006 
82200 6.49707E-006 
82250 6.4812E-006 
82300 6.46538E-006 
82350 6.44961E-006 
82400 6.43388E-006 
82450 6.4182E-006 
82500 6.40257E-006 
82550 6.38699E-006 
82600 6.37146E-006 
82650 6.35597E-006 
82700 6.34053E-006 
82750 6.32513E-006 
82800 6.30979E-006 
82850 6.29449E-006 
82900 6.27923E-006 
82950 6.26402E-006 
83000 6.24886E-006 
83050 6.23374E-006 
83100 6.21867E-006 
83150 6.20364E-006 
83200 6.18866E-006 
83250 6.17372E-006 
83300 6.15883E-006 
83350 6.14398E-006 
83400 6.12918E-006 
83450 6.11442E-006 
83500 6.09971E-006 
83550 6.08504E-006 
83600 6.07042E-006 
83650 6.05583E-006 
83700 6.0413E-006 
83750 6.0268E-006 
83800 6.01235E-006 
83850 5.99795E-006 
83900 5.98358E-006 
83950 5.96926E-006 
84000 5.95498E-006 
84050 5.94075E-006 
84100 5.92656E-006 
84150 5.91242E-006 
84200 5.89831E-006 
84250 5.88425E-006 
84300 5.87023E-006 
84350 5.85625E-006 
84400 5.84232E-006 
84450 5.82842E-006 
84500 5.81457E-006 
84550 5.80076E-006 
84600 5.78699E-006 
84650 5.77325E-006 
84700 5.75956E-006 
84750 5.74592E-006 
84800 5.73231E-006 
84850 5.71874E-006 
84900 5.70521E-006 
84950 5.69172E-006 
85000 5.67827E-006 
85050 5.66486E-006 
85100 5.65149E-006 
85150 5.63815E-006 
85200 5.62486E-006 
85250 5.6116E-006 
85300 5.59839E-006 
85350 5.58521E-006 
85400 5.57207E-006 
85450 5.55897E-006 
85500 5.54591E-006 
85550 5.53289E-006 
85600 5.5199E-006 
85650 5.50696E-006 
85700 5.49405E-006 
85750 5.48118E-006 
85800 5.46834E-006 
85850 5.45555E-006 
85900 5.44279E-006 
85950 5.43007E-006 
86000 5.41738E-006 
86050 5.40474E-006 
86100 5.39213E-006 
86150 5.37956E-006 
86200 5.36702E-006 
86250 5.35452E-006 
86300 5.34206E-006 
86350 5.32963E-006 
86400 5.31724E-006 
86450 5.30488E-006 
86500 5.29256E-006 
86550 5.28028E-006 
86600 5.26804E-006 
86650 5.25583E-006 
86700 5.24365E-006 
86750 5.23151E-006 
86800 5.21941E-006 
86850 5.20734E-006 
86900 5.19531E-006 
86950 5.18331E-006 
87000 5.17134E-006 
87050 5.15941E-006 
87100 5.14752E-006 
87150 5.13566E-006 
87200 5.12383E-006 
87250 5.11204E-006 
87300 5.10028E-006 
87350 5.08855E-006 
87400 5.07686E-006 
87450 5.0652E-006 
87500 5.05358E-006 
87550 5.04199E-006 
87600 5.03043E-006 
87650 5.0189E-006 
87700 5.00741E-006 
87750 4.99595E-006 
87800 4.98453E-006 
87850 4.97313E-006 
87900 4.96177E-006 
87950 4.95044E-006 
88000 4.93915E-006 
88050 4.92788E-006 
88100 4.91665E-006 
88150 4.90544E-006 
88200 4.89427E-006 
88250 4.88313E-006 
88300 4.87203E-006 
88350 4.86095E-006 
88400 4.84991E-006 
88450 4.8389E-006 
88500 4.82792E-006 
88550 4.81696E-006 
88600 4.80605E-006 
88650 4.79516E-006 
88700 4.7843E-006 
88750 4.77347E-006 
88800 4.76268E-006 
88850 4.75191E-006 
88900 4.74118E-006 
88950 4.73047E-006 
89000 4.7198E-006 
89050 4.70916E-006 
89100 4.69855E-006 
89150 4.68797E-006 
89200 4.67742E-006 
89250 4.66689E-006 
89300 4.6564E-006 
89350 4.64594E-006 
89400 4.63551E-006 
89450 4.6251E-006 
89500 4.61473E-006 
89550 4.60438E-006 
89600 4.59407E-006 
89650 4.58378E-006 
89700 4.57352E-006 
89750 4.56329E-006 
89800 4.55309E-006 
89850 4.54292E-006 
89900 4.53277E-006 
89950 4.52265E-006 
90000 4.51257E-006 
90050 4.50251E-006 
90100 4.49247E-006 
90150 4.48247E-006 
90200 4.47249E-006 
90250 4.46254E-006 
90300 4.45262E-006 
90350 4.44273E-006 
90400 4.43286E-006 
90450 4.42302E-006 
90500 4.41321E-006 
90550 4.40342E-006 
90600 4.39367E-006 
90650 4.38394E-006 
90700 4.37423E-006 
90750 4.36456E-006 
90800 4.35491E-006 
90850 4.34528E-006 
90900 4.33568E-006 
90950 4.32611E-006 
91000 4.31657E-006 
91050 4.30705E-006 
91100 4.29756E-006 
91150 4.2881E-006 
91200 4.27866E-006 
91250 4.26924E-006 
91300 4.25986E-006 
91350 4.2505E-006 
91400 4.24116E-006 
91450 4.23185E-006 
91500 4.22257E-006 
91550 4.21331E-006 
91600 4.20407E-006 
91650 4.19487E-006 
91700 4.18568E-006 
91750 4.17652E-006 
91800 4.16739E-006 
91850 4.15828E-006 
91900 4.1492E-006 
91950 4.14014E-006 
92000 4.13111E-006 
92050 4.1221E-006 
92100 4.11311E-006 
92150 4.10416E-006 
92200 4.09522E-006 
92250 4.08631E-006 
92300 4.07742E-006 
92350 4.06856E-006 
92400 4.05972E-006 
92450 4.05091E-006 
92500 4.04212E-006 
92550 4.03335E-006 
92600 4.02461E-006 
92650 4.01589E-006 
92700 4.00719E-006 
92750 3.99852E-006 
92800 3.98987E-006 
92850 3.98124E-006 
92900 3.97264E-006 
92950 3.96406E-006 
93000 3.95551E-006 
93050 3.94697E-006 
93100 3.93847E-006 
93150 3.92998E-006 
93200 3.92152E-006 
93250 3.91308E-006 
93300 3.90466E-006 
93350 3.89626E-006 
93400 3.88789E-006 
93450 3.87954E-006 
93500 3.87122E-006 
93550 3.86291E-006 
93600 3.85463E-006 
93650 3.84637E-006 
93700 3.83813E-006 
93750 3.82991E-006 
93800 3.82172E-006 
93850 3.81355E-006 
93900 3.80539E-006 
93950 3.79727E-006 
94000 3.78916E-006 
94050 3.78107E-006 
94100 3.77301E-006 
94150 3.76497E-006 
94200 3.75695E-006 
94250 3.74895E-006 
94300 3.74097E-006 
94350 3.73301E-006 
94400 3.72508E-006 
94450 3.71716E-006 
94500 3.70927E-006 
94550 3.70139E-006 
94600 3.69354E-006 
94650 3.68571E-006 
94700 3.6779E-006 
94750 3.67011E-006 
94800 3.66234E-006 
94850 3.65459E-006 
94900 3.64687E-006 
94950 3.63916E-006 
95000 3.63147E-006 
95050 3.6238E-006 
95100 3.61616E-006 
95150 3.60853E-006 
95200 3.60092E-006 
95250 3.59333E-006 
95300 3.58577E-006 
95350 3.57822E-006 
95400 3.57069E-006 
95450 3.56318E-006 
95500 3.5557E-006 
95550 3.54823E-006 
95600 3.54078E-006 
95650 3.53335E-006 
95700 3.52594E-006 
95750 3.51855E-006 
95800 3.51118E-006 
95850 3.50383E-006 
95900 3.4965E-006 
95950 3.48918E-006 
96000 3.48189E-006 
96050 3.47461E-006 
96100 3.46736E-006 
96150 3.46012E-006 
96200 3.4529E-006 
96250 3.4457E-006 
96300 3.43852E-006 
96350 3.43136E-006 
96400 3.42422E-006 
96450 3.41709E-006 
96500 3.40999E-006 
96550 3.4029E-006 
96600 3.39583E-006 
96650 3.38879E-006 
96700 3.38175E-006 
96750 3.37474E-006 
96800 3.36775E-006 
96850 3.36077E-006 
96900 3.35381E-006 
96950 3.34687E-006 
97000 3.33995E-006 
97050 3.33305E-006 
97100 3.32616E-006 
97150 3.31929E-006 
97200 3.31244E-006 
97250 3.30561E-006 
97300 3.29879E-006 
97350 3.29199E-006 
97400 3.28521E-006 
97450 3.27845E-006 
97500 3.2717E-006 
97550 3.26497E-006 
97600 3.25826E-006 
97650 3.25157E-006 
97700 3.24489E-006 
97750 3.23823E-006 
97800 3.23159E-006 
97850 3.22497E-006 
97900 3.21836E-006 
97950 3.21177E-006 
98000 3.20519E-006 
98050 3.19863E-006 
98100 3.19209E-006 
98150 3.18557E-006 
98200 3.17906E-006 
98250 3.17256E-006 
98300 3.16609E-006 
98350 3.15963E-006 
98400 3.15319E-006 
98450 3.14676E-006 
98500 3.14035E-006 
98550 3.13396E-006 
98600 3.12758E-006 
98650 3.12122E-006 
98700 3.11488E-006 
98750 3.10855E-006 
98800 3.10224E-006 
98850 3.09594E-006 
98900 3.08966E-006 
98950 3.0834E-006 
99000 3.07715E-006 
99050 3.07091E-006 
99100 3.06469E-006 
99150 3.05849E-006 
99200 3.0523E-006 
99250 3.04613E-006 
99300 3.03998E-006 
99350 3.03383E-006 
99400 3.02771E-006 
99450 3.0216E-006 
99500 3.01551E-006 
99550 3.00943E-006 
99600 3.00337E-006 
99650 2.99733E-006 
99700 2.9913E-006 
99750 2.98528E-006 
99800 2.97929E-006 
99850 2.9733E-006 
99900 2.96733E-006 
99950 2.96138E-006 
100000 2.95544E-006 
