#F U:\Beamline I20\!M2 and filters heat load\xop\Si-3mrad.dat
#C Si -3mrad - normalized
#S 1 File written by xplot on Fri Mar 06 17:53:08 2009
#N 2
#L    Photon Energy [eV]  Intens after oe #1
50 0.997006 
100 0.949539 
150 0.962167 
200 0.968291 
250 0.970126 
300 0.971602 
350 0.972727 
400 0.97421 
450 0.975386 
500 0.976521 
550 0.977477 
600 0.978397 
650 0.979321 
700 0.980078 
750 0.980572 
800 0.98106 
850 0.981692 
900 0.982274 
950 0.982978 
1000 0.983614 
1050 0.984184 
1100 0.984661 
1150 0.984944 
1200 0.985206 
1250 0.985449 
1300 0.985664 
1350 0.98586 
1400 0.986028 
1450 0.986164 
1500 0.986266 
1550 0.986349 
1600 0.986368 
1650 0.986287 
1700 0.986044 
1750 0.985471 
1800 0.983677 
1850 0.757333 
1900 0.864122 
1950 0.876318 
2000 0.883601 
2050 0.888698 
2100 0.892713 
2150 0.895997 
2200 0.898794 
2250 0.901213 
2300 0.903387 
2350 0.905326 
2400 0.907103 
2450 0.90875 
2500 0.910269 
2550 0.91168 
2600 0.913012 
2650 0.914275 
2700 0.915469 
2750 0.916603 
2800 0.917675 
2850 0.918699 
2900 0.919685 
2950 0.92063 
3000 0.921537 
3050 0.92241 
3100 0.923251 
3150 0.924064 
3200 0.924848 
3250 0.925606 
3300 0.92634 
3350 0.927051 
3400 0.927741 
3450 0.928411 
3500 0.929062 
3550 0.929695 
3600 0.930301 
3650 0.930892 
3700 0.931467 
3750 0.932029 
3800 0.932578 
3850 0.933116 
3900 0.933629 
3950 0.934129 
4000 0.93462 
4050 0.935102 
4100 0.935573 
4150 0.93602 
4200 0.93646 
4250 0.936895 
4300 0.93732 
4350 0.937723 
4400 0.938123 
4450 0.938519 
4500 0.938893 
4550 0.939261 
4600 0.939627 
4650 0.939977 
4700 0.940316 
4750 0.940655 
4800 0.940978 
4850 0.941292 
4900 0.941607 
4950 0.941903 
5000 0.942195 
5050 0.942485 
5100 0.942756 
5150 0.943031 
5200 0.943292 
5250 0.943545 
5300 0.943799 
5350 0.944032 
5400 0.944271 
5450 0.944494 
5500 0.944714 
5550 0.944929 
5600 0.945132 
5650 0.945338 
5700 0.945525 
5750 0.945719 
5800 0.945891 
5850 0.946069 
5900 0.94623 
5950 0.946394 
6000 0.946546 
6050 0.946696 
6100 0.946835 
6150 0.946971 
6200 0.947099 
6250 0.947221 
6300 0.947336 
6350 0.947447 
6400 0.94755 
6450 0.947649 
6500 0.947735 
6550 0.947821 
6600 0.947895 
6650 0.947971 
6700 0.948029 
6750 0.948094 
6800 0.948137 
6850 0.948187 
6900 0.948217 
6950 0.94825 
7000 0.948269 
7050 0.948285 
7100 0.948294 
7150 0.948291 
7200 0.948289 
7250 0.948267 
7300 0.948249 
7350 0.948212 
7400 0.948173 
7450 0.948125 
7500 0.948064 
7550 0.948005 
7600 0.947921 
7650 0.947838 
7700 0.947741 
7750 0.947633 
7800 0.947522 
7850 0.947388 
7900 0.947253 
7950 0.947101 
8000 0.946935 
8050 0.946767 
8100 0.946569 
8150 0.946368 
8200 0.946152 
8250 0.945914 
8300 0.945671 
8350 0.9454 
8400 0.945115 
8450 0.944819 
8500 0.944489 
8550 0.944149 
8600 0.943786 
8650 0.943393 
8700 0.942983 
8750 0.942542 
8800 0.942071 
8850 0.941578 
8900 0.941042 
8950 0.940475 
9000 0.939878 
9050 0.939228 
9100 0.938539 
9150 0.937811 
9200 0.937017 
9250 0.936174 
9300 0.935275 
9350 0.934301 
9400 0.933257 
9450 0.932136 
9500 0.930941 
9550 0.92965 
9600 0.928248 
9650 0.926912 
9700 0.925467 
9750 0.923885 
9800 0.921479 
9850 0.918636 
9900 0.915395 
9950 0.91152 
10000 0.9069 
10050 0.901363 
10100 0.894935 
10150 0.887372 
10200 0.877675 
10250 0.864652 
10300 0.845985 
10350 0.816912 
10400 0.767217 
10450 0.688147 
10500 0.60243 
10550 0.532486 
10600 0.477813 
10650 0.434002 
10700 0.397842 
10750 0.367326 
10800 0.341164 
10850 0.318355 
10900 0.298243 
10950 0.280367 
11000 0.26434 
11050 0.249863 
11100 0.236713 
11150 0.224726 
11200 0.213731 
11250 0.203607 
11300 0.194259 
11350 0.185599 
11400 0.177549 
11450 0.170046 
11500 0.163046 
11550 0.156492 
11600 0.150343 
11650 0.144564 
11700 0.139128 
11750 0.134 
11800 0.129157 
11850 0.124579 
11900 0.120245 
11950 0.116136 
12000 0.112234 
12050 0.108527 
12100 0.105 
12150 0.101641 
12200 0.0984386 
12250 0.095385 
12300 0.0924695 
12350 0.0896827 
12400 0.0870169 
12450 0.0844664 
12500 0.0820236 
12550 0.0796817 
12600 0.077435 
12650 0.0752797 
12700 0.0732099 
12750 0.0712207 
12800 0.0693078 
12850 0.067468 
12900 0.0656973 
12950 0.0639919 
13000 0.0623484 
13050 0.0607644 
13100 0.059237 
13150 0.0577632 
13200 0.0563403 
13250 0.0549664 
13300 0.0536394 
13350 0.0523568 
13400 0.0511166 
13450 0.049917 
13500 0.0487567 
13550 0.0476337 
13600 0.0465461 
13650 0.0454927 
13700 0.0444722 
13750 0.0434831 
13800 0.0425241 
13850 0.041594 
13900 0.0406918 
13950 0.0398166 
14000 0.038967 
14050 0.0381421 
14100 0.0373409 
14150 0.0365628 
14200 0.0358068 
14250 0.035072 
14300 0.0343576 
14350 0.0336628 
14400 0.0329873 
14450 0.03233 
14500 0.0316903 
14550 0.0310677 
14600 0.0304617 
14650 0.0298716 
14700 0.0292969 
14750 0.028737 
14800 0.0281915 
14850 0.0276601 
14900 0.0271421 
14950 0.0266371 
15000 0.0261446 
15050 0.0256644 
15100 0.0251959 
15150 0.0247388 
15200 0.0242929 
15250 0.0238576 
15300 0.0234327 
15350 0.023018 
15400 0.0226132 
15450 0.0222177 
15500 0.0218315 
15550 0.0214542 
15600 0.0210856 
15650 0.0207254 
15700 0.0203734 
15750 0.0200293 
15800 0.0196929 
15850 0.019364 
15900 0.0190424 
15950 0.0187279 
16000 0.0184202 
16050 0.0181192 
16100 0.0178247 
16150 0.0175365 
16200 0.0172544 
16250 0.0169783 
16300 0.016708 
16350 0.0164436 
16400 0.0161846 
16450 0.015931 
16500 0.0156826 
16550 0.0154393 
16600 0.0152009 
16650 0.0149674 
16700 0.0147386 
16750 0.0145144 
16800 0.0142947 
16850 0.0140793 
16900 0.0138683 
16950 0.0136614 
17000 0.0134585 
17050 0.0132596 
17100 0.0130645 
17150 0.0128732 
17200 0.0126855 
17250 0.0125015 
17300 0.0123209 
17350 0.0121437 
17400 0.0119698 
17450 0.0117992 
17500 0.0116318 
17550 0.0114674 
17600 0.0113061 
17650 0.0111477 
17700 0.0109923 
17750 0.0108397 
17800 0.0106899 
17850 0.0105428 
17900 0.0103983 
17950 0.0102563 
18000 0.0101169 
18050 0.00997999 
18100 0.00984546 
18150 0.00971327 
18200 0.0095834 
18250 0.00945578 
18300 0.00933039 
18350 0.00920717 
18400 0.00908605 
18450 0.008967 
18500 0.00884996 
18550 0.00873491 
18600 0.0086218 
18650 0.00851058 
18700 0.00840122 
18750 0.00829369 
18800 0.00818793 
18850 0.00808392 
18900 0.00798164 
18950 0.00788103 
19000 0.00778206 
19050 0.0076847 
19100 0.00758891 
19150 0.00749467 
19200 0.00740196 
19250 0.00731073 
19300 0.00722095 
19350 0.00713259 
19400 0.00704563 
19450 0.00696004 
19500 0.00687579 
19550 0.00679286 
19600 0.00671121 
19650 0.00663083 
19700 0.00655169 
19750 0.00647377 
19800 0.00639704 
19850 0.00632148 
19900 0.00624708 
19950 0.0061738 
20000 0.00610163 
20050 0.00603054 
20100 0.00596052 
20150 0.00589156 
20200 0.00582363 
20250 0.0057567 
20300 0.00569077 
20350 0.0056258 
20400 0.00556179 
20450 0.00549872 
20500 0.00543658 
20550 0.00537534 
20600 0.00531498 
20650 0.0052555 
20700 0.00519687 
20750 0.00513908 
20800 0.00508212 
20850 0.00502596 
20900 0.00497061 
20950 0.00491603 
21000 0.00486222 
21050 0.00480917 
21100 0.00475686 
21150 0.00470528 
21200 0.00465442 
21250 0.00460427 
21300 0.0045548 
21350 0.00450602 
21400 0.0044579 
21450 0.00441045 
21500 0.00436365 
21550 0.00431749 
21600 0.00427195 
21650 0.00422703 
21700 0.00418271 
21750 0.00413899 
21800 0.00409586 
21850 0.00405331 
21900 0.00401132 
21950 0.00396989 
22000 0.00392901 
22050 0.00388866 
22100 0.00384884 
22150 0.00380955 
22200 0.00377077 
22250 0.0037325 
22300 0.00369472 
22350 0.00365742 
22400 0.00362061 
22450 0.00358428 
22500 0.00354841 
22550 0.003513 
22600 0.00347804 
22650 0.00344352 
22700 0.00340944 
22750 0.00337579 
22800 0.00334257 
22850 0.00330976 
22900 0.00327736 
22950 0.00324537 
23000 0.00321378 
23050 0.00318258 
23100 0.00315177 
23150 0.00312133 
23200 0.00309127 
23250 0.00306159 
23300 0.00303227 
23350 0.00300331 
23400 0.0029747 
23450 0.00294644 
23500 0.00291852 
23550 0.00289094 
23600 0.00286369 
23650 0.00283678 
23700 0.00281018 
23750 0.00278391 
23800 0.00275794 
23850 0.00273229 
23900 0.00270694 
23950 0.00268189 
24000 0.00265713 
24050 0.00263266 
24100 0.00260847 
24150 0.00258457 
24200 0.00256095 
24250 0.0025376 
24300 0.00251453 
24350 0.00249172 
24400 0.00246918 
24450 0.0024469 
24500 0.00242487 
24550 0.0024031 
24600 0.00238157 
24650 0.00236029 
24700 0.00233925 
24750 0.00231846 
24800 0.0022979 
24850 0.00227757 
24900 0.00225747 
24950 0.0022376 
25000 0.00221795 
25050 0.00219851 
25100 0.0021793 
25150 0.0021603 
25200 0.00214151 
25250 0.00212292 
25300 0.00210455 
25350 0.00208637 
25400 0.00206839 
25450 0.00205061 
25500 0.00203302 
25550 0.00201563 
25600 0.00199842 
25650 0.0019814 
25700 0.00196457 
25750 0.00194792 
25800 0.00193144 
25850 0.00191514 
25900 0.00189902 
25950 0.00188307 
26000 0.00186729 
26050 0.00185168 
26100 0.00183623 
26150 0.00182095 
26200 0.00180583 
26250 0.00179086 
26300 0.00177606 
26350 0.00176141 
26400 0.00174691 
26450 0.00173257 
26500 0.00171838 
26550 0.00170433 
26600 0.00169043 
26650 0.00167668 
26700 0.00166306 
26750 0.00164959 
26800 0.00163625 
26850 0.00162305 
26900 0.00160999 
26950 0.00159706 
27000 0.00158426 
27050 0.00157159 
27100 0.00155905 
27150 0.00154664 
27200 0.00153435 
27250 0.00152218 
27300 0.00151014 
27350 0.00149822 
27400 0.00148642 
27450 0.00147473 
27500 0.00146316 
27550 0.00145171 
27600 0.00144037 
27650 0.00142914 
27700 0.00141803 
27750 0.00140702 
27800 0.00139612 
27850 0.00138534 
27900 0.00137465 
27950 0.00136407 
28000 0.00135359 
28050 0.00134322 
28100 0.00133294 
28150 0.00132277 
28200 0.00131269 
28250 0.00130271 
28300 0.00129283 
28350 0.00128304 
28400 0.00127335 
28450 0.00126375 
28500 0.00125424 
28550 0.00124482 
28600 0.00123549 
28650 0.00122624 
28700 0.00121709 
28750 0.00120802 
28800 0.00119904 
28850 0.00119014 
28900 0.00118133 
28950 0.0011726 
29000 0.00116395 
29050 0.00115538 
29100 0.00114689 
29150 0.00113849 
29200 0.00113016 
29250 0.00112192 
29300 0.00111374 
29350 0.00110565 
29400 0.00109763 
29450 0.00108968 
29500 0.0010818 
29550 0.00107399 
29600 0.00106624 
29650 0.00105857 
29700 0.00105096 
29750 0.00104343 
29800 0.00103596 
29850 0.00102856 
29900 0.00102123 
29950 0.00101396 
30000 0.00100676 
30050 0.000999764 
30100 0.00099283 
30150 0.000985957 
30200 0.000979144 
30250 0.000972392 
30300 0.000965698 
30350 0.000959063 
30400 0.000952486 
30450 0.000945834 
30500 0.000939241 
30550 0.000932705 
30600 0.000926227 
30650 0.000919805 
30700 0.00091344 
30750 0.000907131 
30800 0.000900877 
30850 0.000894678 
30900 0.000888533 
30950 0.000882442 
31000 0.000876403 
31050 0.000870417 
31100 0.000864482 
31150 0.000858598 
31200 0.000852765 
31250 0.000846979 
31300 0.000841243 
31350 0.000835556 
31400 0.000829918 
31450 0.000824328 
31500 0.000818785 
31550 0.00081329 
31600 0.000807843 
31650 0.000802442 
31700 0.000797086 
31750 0.000791775 
31800 0.000786509 
31850 0.000781287 
31900 0.000776109 
31950 0.000770976 
32000 0.000765885 
32050 0.000760837 
32100 0.000755831 
32150 0.000750866 
32200 0.000745942 
32250 0.000741059 
32300 0.000736217 
32350 0.000731412 
32400 0.000726648 
32450 0.000721922 
32500 0.000717236 
32550 0.000712587 
32600 0.000707977 
32650 0.000703404 
32700 0.000698868 
32750 0.00069437 
32800 0.000689908 
32850 0.000685481 
32900 0.000681091 
32950 0.000676736 
33000 0.000672417 
33050 0.000668133 
33100 0.000663883 
33150 0.000659668 
33200 0.000655487 
33250 0.000651338 
33300 0.000647223 
33350 0.000643141 
33400 0.000639091 
33450 0.000635073 
33500 0.000631087 
33550 0.000627133 
33600 0.00062321 
33650 0.000619317 
33700 0.000615455 
33750 0.000611624 
33800 0.000607823 
33850 0.000604052 
33900 0.00060031 
33950 0.000596597 
34000 0.000592914 
34050 0.000589259 
34100 0.000585632 
34150 0.000582033 
34200 0.000578462 
34250 0.000574919 
34300 0.000571403 
34350 0.000567914 
34400 0.000564452 
34450 0.000561016 
34500 0.000557607 
34550 0.000554225 
34600 0.000550869 
34650 0.000547538 
34700 0.000544233 
34750 0.000540952 
34800 0.000537697 
34850 0.000534466 
34900 0.00053126 
34950 0.000528078 
35000 0.00052492 
35050 0.000521786 
35100 0.000518675 
35150 0.000515588 
35200 0.000512524 
35250 0.000509482 
35300 0.000506464 
35350 0.000503468 
35400 0.000500494 
35450 0.000497542 
35500 0.000494612 
35550 0.000491704 
35600 0.000488818 
35650 0.000485953 
35700 0.000483109 
35750 0.000480285 
35800 0.000477483 
35850 0.000474701 
35900 0.00047194 
35950 0.000469199 
36000 0.000466477 
36050 0.000463776 
36100 0.000461095 
36150 0.000458433 
36200 0.00045579 
36250 0.000453166 
36300 0.000450562 
36350 0.000447976 
36400 0.000445409 
36450 0.00044286 
36500 0.00044033 
36550 0.000437818 
36600 0.000435325 
36650 0.000432849 
36700 0.000430391 
36750 0.00042795 
36800 0.000425527 
36850 0.000423121 
36900 0.000420732 
36950 0.000418361 
37000 0.000416006 
37050 0.000413668 
37100 0.000411347 
37150 0.000409042 
37200 0.000406753 
37250 0.000404481 
37300 0.000402224 
37350 0.000399984 
37400 0.000397759 
37450 0.000395549 
37500 0.000393355 
37550 0.000391176 
37600 0.000389012 
37650 0.000386863 
37700 0.000384729 
37750 0.000382609 
37800 0.000380505 
37850 0.000378415 
37900 0.000376339 
37950 0.000374278 
38000 0.000372231 
38050 0.000370198 
38100 0.00036818 
38150 0.000366175 
38200 0.000364184 
38250 0.000362207 
38300 0.000360243 
38350 0.000358292 
38400 0.000356355 
38450 0.000354431 
38500 0.00035252 
38550 0.000350622 
38600 0.000348737 
38650 0.000346864 
38700 0.000345005 
38750 0.000343157 
38800 0.000341322 
38850 0.0003395 
38900 0.00033769 
38950 0.000335891 
39000 0.000334105 
39050 0.000332331 
39100 0.000330569 
39150 0.000328818 
39200 0.000327079 
39250 0.000325352 
39300 0.000323636 
39350 0.000321931 
39400 0.000320238 
39450 0.000318556 
39500 0.000316885 
39550 0.000315225 
39600 0.000313576 
39650 0.000311938 
39700 0.00031031 
39750 0.000308694 
39800 0.000307088 
39850 0.000305492 
39900 0.000303907 
39950 0.000302332 
40000 0.000300767 
40050 0.000299213 
40100 0.000297669 
40150 0.000296135 
40200 0.000294611 
40250 0.000293097 
40300 0.000291592 
40350 0.000290098 
40400 0.000288612 
40450 0.000287137 
40500 0.000285671 
40550 0.000284214 
40600 0.000282767 
40650 0.000281329 
40700 0.0002799 
40750 0.00027848 
40800 0.000277069 
40850 0.000275668 
40900 0.000274275 
40950 0.000272891 
41000 0.000271516 
41050 0.000270149 
41100 0.000268791 
41150 0.000267442 
41200 0.000266101 
41250 0.000264769 
41300 0.000263445 
41350 0.000262129 
41400 0.000260822 
41450 0.000259523 
41500 0.000258232 
41550 0.000256949 
41600 0.000255673 
41650 0.000254406 
41700 0.000253147 
41750 0.000251896 
41800 0.000250652 
41850 0.000249416 
41900 0.000248188 
41950 0.000246967 
42000 0.000245754 
42050 0.000244547 
42100 0.000243349 
42150 0.000242158 
42200 0.000240974 
42250 0.000239797 
42300 0.000238628 
42350 0.000237466 
42400 0.000236311 
42450 0.000235163 
42500 0.000234023 
42550 0.000232889 
42600 0.000231762 
42650 0.000230642 
42700 0.000229529 
42750 0.000228422 
42800 0.000227322 
42850 0.000226229 
42900 0.000225143 
42950 0.000224063 
43000 0.000222989 
43050 0.000221923 
43100 0.000220862 
43150 0.000219809 
43200 0.000218761 
43250 0.00021772 
43300 0.000216685 
43350 0.000215656 
43400 0.000214633 
43450 0.000213616 
43500 0.000212606 
43550 0.000211601 
43600 0.000210603 
43650 0.00020961 
43700 0.000208623 
43750 0.000207642 
43800 0.000206667 
43850 0.000205697 
43900 0.000204733 
43950 0.000203775 
44000 0.000202822 
44050 0.000201875 
44100 0.000200934 
44150 0.000199998 
44200 0.000199067 
44250 0.000198142 
44300 0.000197222 
44350 0.000196308 
44400 0.000195399 
44450 0.000194495 
44500 0.000193597 
44550 0.000192704 
44600 0.000191815 
44650 0.000190932 
44700 0.000190055 
44750 0.000189182 
44800 0.000188314 
44850 0.000187451 
44900 0.000186593 
44950 0.00018574 
45000 0.000184892 
45050 0.000184049 
45100 0.000183211 
45150 0.000182377 
45200 0.000181549 
45250 0.000180724 
45300 0.000179905 
45350 0.00017909 
45400 0.00017828 
45450 0.000177475 
45500 0.000176674 
45550 0.000175878 
45600 0.000175086 
45650 0.000174298 
45700 0.000173515 
45750 0.000172737 
45800 0.000171963 
45850 0.000171193 
45900 0.000170427 
45950 0.000169666 
46000 0.000168909 
46050 0.000168157 
46100 0.000167408 
46150 0.000166664 
46200 0.000165924 
46250 0.000165188 
46300 0.000164456 
46350 0.000163729 
46400 0.000163005 
46450 0.000162285 
46500 0.000161569 
46550 0.000160858 
46600 0.00016015 
46650 0.000159446 
46700 0.000158747 
46750 0.000158051 
46800 0.000157358 
46850 0.00015667 
46900 0.000155986 
46950 0.000155305 
47000 0.000154628 
47050 0.000153954 
47100 0.000153284 
47150 0.000152618 
47200 0.000151955 
47250 0.000151296 
47300 0.000150641 
47350 0.000149989 
47400 0.00014934 
47450 0.000148695 
47500 0.000148054 
47550 0.000147416 
47600 0.000146782 
47650 0.000146151 
47700 0.000145523 
47750 0.000144899 
47800 0.000144278 
47850 0.000143661 
47900 0.000143046 
47950 0.000142435 
48000 0.000141828 
48050 0.000141224 
48100 0.000140623 
48150 0.000140025 
48200 0.00013943 
48250 0.000138839 
48300 0.000138251 
48350 0.000137665 
48400 0.000137083 
48450 0.000136505 
48500 0.000135929 
48550 0.000135356 
48600 0.000134786 
48650 0.000134219 
48700 0.000133655 
48750 0.000133095 
48800 0.000132537 
48850 0.000131982 
48900 0.00013143 
48950 0.000130881 
49000 0.000130334 
49050 0.000129791 
49100 0.00012925 
49150 0.000128712 
49200 0.000128177 
49250 0.000127644 
49300 0.000127115 
49350 0.000126588 
49400 0.000126064 
49450 0.000125543 
49500 0.000125024 
49550 0.000124508 
49600 0.000123995 
49650 0.000123485 
49700 0.000122977 
49750 0.000122472 
49800 0.000121969 
49850 0.000121469 
49900 0.000120972 
49950 0.000120477 
50000 0.000119984 
50050 0.000119495 
50100 0.000119007 
50150 0.000118522 
50200 0.00011804 
50250 0.00011756 
50300 0.000117083 
50350 0.000116608 
50400 0.000116135 
50450 0.000115665 
50500 0.000115197 
50550 0.000114732 
50600 0.000114268 
50650 0.000113808 
50700 0.000113349 
50750 0.000112893 
50800 0.000112439 
50850 0.000111988 
50900 0.000111539 
50950 0.000111092 
51000 0.000110647 
51050 0.000110205 
51100 0.000109764 
51150 0.000109327 
51200 0.000108891 
51250 0.000108457 
51300 0.000108026 
51350 0.000107597 
51400 0.000107169 
51450 0.000106744 
51500 0.000106322 
51550 0.000105901 
51600 0.000105482 
51650 0.000105065 
51700 0.00010465 
51750 0.000104238 
51800 0.000103827 
51850 0.000103419 
51900 0.000103012 
51950 0.000102607 
52000 0.000102205 
52050 0.000101804 
52100 0.000101406 
52150 0.000101009 
52200 0.000100614 
52250 0.000100222 
52300 9.98307E-005 
52350 9.94418E-005 
52400 9.90547E-005 
52450 9.86696E-005 
52500 9.82863E-005 
52550 9.79048E-005 
52600 9.75253E-005 
52650 9.71475E-005 
52700 9.67716E-005 
52750 9.63976E-005 
52800 9.60253E-005 
52850 9.56549E-005 
52900 9.52862E-005 
52950 9.49193E-005 
53000 9.45542E-005 
53050 9.41908E-005 
53100 9.38293E-005 
53150 9.34694E-005 
53200 9.31113E-005 
53250 9.27549E-005 
53300 9.24002E-005 
53350 9.20472E-005 
53400 9.16958E-005 
53450 9.13462E-005 
53500 9.09982E-005 
53550 9.06521E-005 
53600 9.03075E-005 
53650 8.99647E-005 
53700 8.96234E-005 
53750 8.92838E-005 
53800 8.89458E-005 
53850 8.86093E-005 
53900 8.82746E-005 
53950 8.79413E-005 
54000 8.76097E-005 
54050 8.72795E-005 
54100 8.69508E-005 
54150 8.66237E-005 
54200 8.62982E-005 
54250 8.59741E-005 
54300 8.56516E-005 
54350 8.53306E-005 
54400 8.50112E-005 
54450 8.46932E-005 
54500 8.43767E-005 
54550 8.40616E-005 
54600 8.3748E-005 
54650 8.3436E-005 
54700 8.31257E-005 
54750 8.28169E-005 
54800 8.25095E-005 
54850 8.22036E-005 
54900 8.18979E-005 
54950 8.15948E-005 
55000 8.12931E-005 
55050 8.09924E-005 
55100 8.06931E-005 
55150 8.03952E-005 
55200 8.00987E-005 
55250 7.98035E-005 
55300 7.95097E-005 
55350 7.92176E-005 
55400 7.8927E-005 
55450 7.86376E-005 
55500 7.83495E-005 
55550 7.80625E-005 
55600 7.77767E-005 
55650 7.74923E-005 
55700 7.72092E-005 
55750 7.69273E-005 
55800 7.66467E-005 
55850 7.63675E-005 
55900 7.60895E-005 
55950 7.58128E-005 
56000 7.55373E-005 
56050 7.52631E-005 
56100 7.49902E-005 
56150 7.47186E-005 
56200 7.44482E-005 
56250 7.41789E-005 
56300 7.39109E-005 
56350 7.36441E-005 
56400 7.33786E-005 
56450 7.31142E-005 
56500 7.2851E-005 
56550 7.2589E-005 
56600 7.23282E-005 
56650 7.20685E-005 
56700 7.18101E-005 
56750 7.15528E-005 
56800 7.12966E-005 
56850 7.10417E-005 
56900 7.07879E-005 
56950 7.05352E-005 
57000 7.02836E-005 
57050 7.00332E-005 
57100 6.97839E-005 
57150 6.95357E-005 
57200 6.92886E-005 
57250 6.90426E-005 
57300 6.87977E-005 
57350 6.85539E-005 
57400 6.83111E-005 
57450 6.80695E-005 
57500 6.78289E-005 
57550 6.75894E-005 
57600 6.7351E-005 
57650 6.71135E-005 
57700 6.68772E-005 
57750 6.66419E-005 
57800 6.64076E-005 
57850 6.61743E-005 
57900 6.59421E-005 
57950 6.57109E-005 
58000 6.54807E-005 
58050 6.52516E-005 
58100 6.50234E-005 
58150 6.47962E-005 
58200 6.457E-005 
58250 6.43449E-005 
58300 6.41207E-005 
58350 6.38975E-005 
58400 6.36752E-005 
58450 6.34539E-005 
58500 6.32337E-005 
58550 6.30143E-005 
58600 6.27959E-005 
58650 6.25785E-005 
58700 6.23619E-005 
58750 6.21464E-005 
58800 6.19317E-005 
58850 6.1718E-005 
58900 6.15052E-005 
58950 6.12934E-005 
59000 6.10825E-005 
59050 6.08724E-005 
59100 6.06633E-005 
59150 6.0455E-005 
59200 6.02477E-005 
59250 6.00413E-005 
59300 5.98357E-005 
59350 5.9631E-005 
59400 5.94272E-005 
59450 5.92243E-005 
59500 5.90222E-005 
59550 5.8821E-005 
59600 5.86207E-005 
59650 5.84212E-005 
59700 5.82225E-005 
59750 5.80248E-005 
59800 5.78278E-005 
59850 5.76316E-005 
59900 5.74363E-005 
59950 5.72418E-005 
60000 5.70482E-005 
60050 5.68554E-005 
60100 5.66634E-005 
60150 5.64722E-005 
60200 5.62818E-005 
60250 5.60922E-005 
60300 5.59035E-005 
60350 5.57156E-005 
60400 5.55284E-005 
60450 5.5342E-005 
60500 5.51563E-005 
60550 5.49716E-005 
60600 5.47875E-005 
60650 5.46042E-005 
60700 5.44217E-005 
60750 5.424E-005 
60800 5.4059E-005 
60850 5.38788E-005 
60900 5.36993E-005 
60950 5.35206E-005 
61000 5.33427E-005 
61050 5.31655E-005 
61100 5.2989E-005 
61150 5.28133E-005 
61200 5.26383E-005 
61250 5.2464E-005 
61300 5.22904E-005 
61350 5.21176E-005 
61400 5.19455E-005 
61450 5.17741E-005 
61500 5.16033E-005 
61550 5.14333E-005 
61600 5.1264E-005 
61650 5.10954E-005 
61700 5.09274E-005 
61750 5.07602E-005 
61800 5.05936E-005 
61850 5.04277E-005 
61900 5.02625E-005 
61950 5.0098E-005 
62000 4.99342E-005 
62050 4.9771E-005 
62100 4.96085E-005 
62150 4.94467E-005 
62200 4.92855E-005 
62250 4.9125E-005 
62300 4.89651E-005 
62350 4.88059E-005 
62400 4.86474E-005 
62450 4.84895E-005 
62500 4.83322E-005 
62550 4.81756E-005 
62600 4.80196E-005 
62650 4.78643E-005 
62700 4.77096E-005 
62750 4.75555E-005 
62800 4.7402E-005 
62850 4.72492E-005 
62900 4.7097E-005 
62950 4.69454E-005 
63000 4.67944E-005 
63050 4.66439E-005 
63100 4.64941E-005 
63150 4.63449E-005 
63200 4.61962E-005 
63250 4.60482E-005 
63300 4.59008E-005 
63350 4.5754E-005 
63400 4.56077E-005 
63450 4.5462E-005 
63500 4.53169E-005 
63550 4.51724E-005 
63600 4.50285E-005 
63650 4.48851E-005 
63700 4.47423E-005 
63750 4.46001E-005 
63800 4.44585E-005 
63850 4.43174E-005 
63900 4.41769E-005 
63950 4.40369E-005 
64000 4.38975E-005 
64050 4.37587E-005 
64100 4.36204E-005 
64150 4.34827E-005 
64200 4.33455E-005 
64250 4.32088E-005 
64300 4.30727E-005 
64350 4.29371E-005 
64400 4.28021E-005 
64450 4.26676E-005 
64500 4.25336E-005 
64550 4.24002E-005 
64600 4.22673E-005 
64650 4.21349E-005 
64700 4.2003E-005 
64750 4.18716E-005 
64800 4.17408E-005 
64850 4.16104E-005 
64900 4.14806E-005 
64950 4.13512E-005 
65000 4.12224E-005 
65050 4.10941E-005 
65100 4.09663E-005 
65150 4.0839E-005 
65200 4.07121E-005 
65250 4.05858E-005 
65300 4.04599E-005 
65350 4.03346E-005 
65400 4.02097E-005 
65450 4.00853E-005 
65500 3.99614E-005 
65550 3.9838E-005 
65600 3.9715E-005 
65650 3.95925E-005 
65700 3.94705E-005 
65750 3.9349E-005 
65800 3.92279E-005 
65850 3.91073E-005 
65900 3.89872E-005 
65950 3.88675E-005 
66000 3.87483E-005 
66050 3.86296E-005 
66100 3.85113E-005 
66150 3.83934E-005 
66200 3.8276E-005 
66250 3.81591E-005 
66300 3.80426E-005 
66350 3.79266E-005 
66400 3.7811E-005 
66450 3.76958E-005 
66500 3.7581E-005 
66550 3.74668E-005 
66600 3.73529E-005 
66650 3.72395E-005 
66700 3.71265E-005 
66750 3.70139E-005 
66800 3.69018E-005 
66850 3.67901E-005 
66900 3.66788E-005 
66950 3.65679E-005 
67000 3.64575E-005 
67050 3.63474E-005 
67100 3.62378E-005 
67150 3.61286E-005 
67200 3.60198E-005 
67250 3.59114E-005 
67300 3.58035E-005 
67350 3.56959E-005 
67400 3.55887E-005 
67450 3.5482E-005 
67500 3.53757E-005 
67550 3.52698E-005 
67600 3.51643E-005 
67650 3.50591E-005 
67700 3.49544E-005 
67750 3.48501E-005 
67800 3.47461E-005 
67850 3.46426E-005 
67900 3.45394E-005 
67950 3.44366E-005 
68000 3.43342E-005 
68050 3.42321E-005 
68100 3.41305E-005 
68150 3.40292E-005 
68200 3.39282E-005 
68250 3.38277E-005 
68300 3.37275E-005 
68350 3.36277E-005 
68400 3.35283E-005 
68450 3.34292E-005 
68500 3.33305E-005 
68550 3.32322E-005 
68600 3.31342E-005 
68650 3.30366E-005 
68700 3.29393E-005 
68750 3.28424E-005 
68800 3.27459E-005 
68850 3.26497E-005 
68900 3.25539E-005 
68950 3.24584E-005 
69000 3.23633E-005 
69050 3.22685E-005 
69100 3.21741E-005 
69150 3.208E-005 
69200 3.19863E-005 
69250 3.18929E-005 
69300 3.17998E-005 
69350 3.17071E-005 
69400 3.16147E-005 
69450 3.15227E-005 
69500 3.1431E-005 
69550 3.13396E-005 
69600 3.12486E-005 
69650 3.11579E-005 
69700 3.10675E-005 
69750 3.09774E-005 
69800 3.08877E-005 
69850 3.07983E-005 
69900 3.07092E-005 
69950 3.06205E-005 
70000 3.05321E-005 
70050 3.0444E-005 
70100 3.03562E-005 
70150 3.02688E-005 
70200 3.01816E-005 
70250 3.00948E-005 
70300 3.00083E-005 
70350 2.99221E-005 
70400 2.98362E-005 
70450 2.97506E-005 
70500 2.96653E-005 
70550 2.95804E-005 
70600 2.94957E-005 
70650 2.94113E-005 
70700 2.93273E-005 
70750 2.92435E-005 
70800 2.91601E-005 
70850 2.90769E-005 
70900 2.8994E-005 
70950 2.89115E-005 
71000 2.88292E-005 
71050 2.87472E-005 
71100 2.86655E-005 
71150 2.85841E-005 
71200 2.8503E-005 
71250 2.84222E-005 
71300 2.83417E-005 
71350 2.82614E-005 
71400 2.81814E-005 
71450 2.81018E-005 
71500 2.80224E-005 
71550 2.79432E-005 
71600 2.78644E-005 
71650 2.77858E-005 
71700 2.77076E-005 
71750 2.76296E-005 
71800 2.75518E-005 
71850 2.74744E-005 
71900 2.73972E-005 
71950 2.73203E-005 
72000 2.72436E-005 
72050 2.71672E-005 
72100 2.70911E-005 
72150 2.70153E-005 
72200 2.69397E-005 
72250 2.68643E-005 
72300 2.67893E-005 
72350 2.67145E-005 
72400 2.664E-005 
72450 2.65657E-005 
72500 2.64917E-005 
72550 2.64179E-005 
72600 2.63444E-005 
72650 2.62712E-005 
72700 2.61982E-005 
72750 2.61255E-005 
72800 2.6053E-005 
72850 2.59807E-005 
72900 2.59088E-005 
72950 2.5837E-005 
73000 2.57655E-005 
73050 2.56943E-005 
73100 2.56233E-005 
73150 2.55525E-005 
73200 2.5482E-005 
73250 2.54118E-005 
73300 2.53418E-005 
73350 2.5272E-005 
73400 2.52025E-005 
73450 2.51332E-005 
73500 2.50641E-005 
73550 2.49953E-005 
73600 2.49267E-005 
73650 2.48584E-005 
73700 2.47903E-005 
73750 2.47225E-005 
73800 2.46548E-005 
73850 2.45875E-005 
73900 2.45203E-005 
73950 2.44534E-005 
74000 2.43867E-005 
74050 2.43202E-005 
74100 2.42539E-005 
74150 2.41879E-005 
74200 2.41221E-005 
74250 2.40565E-005 
74300 2.39911E-005 
74350 2.3926E-005 
74400 2.38611E-005 
74450 2.37964E-005 
74500 2.37319E-005 
74550 2.36676E-005 
74600 2.36036E-005 
74650 2.35397E-005 
74700 2.34761E-005 
74750 2.34127E-005 
74800 2.33495E-005 
74850 2.32865E-005 
74900 2.32238E-005 
74950 2.31612E-005 
75000 2.30989E-005 
75050 2.30368E-005 
75100 2.29749E-005 
75150 2.29132E-005 
75200 2.28517E-005 
75250 2.27904E-005 
75300 2.27293E-005 
75350 2.26684E-005 
75400 2.26077E-005 
75450 2.25473E-005 
75500 2.2487E-005 
75550 2.24269E-005 
75600 2.23671E-005 
75650 2.23074E-005 
75700 2.22479E-005 
75750 2.21887E-005 
75800 2.21296E-005 
75850 2.20707E-005 
75900 2.2012E-005 
75950 2.19536E-005 
76000 2.18953E-005 
76050 2.18372E-005 
76100 2.17793E-005 
76150 2.17216E-005 
76200 2.1664E-005 
76250 2.16067E-005 
76300 2.15496E-005 
76350 2.14926E-005 
76400 2.14359E-005 
76450 2.13793E-005 
76500 2.13229E-005 
76550 2.12667E-005 
76600 2.12107E-005 
76650 2.11549E-005 
76700 2.10992E-005 
76750 2.10438E-005 
76800 2.09885E-005 
76850 2.09334E-005 
76900 2.08785E-005 
76950 2.08238E-005 
77000 2.07692E-005 
77050 2.07148E-005 
77100 2.06606E-005 
77150 2.06066E-005 
77200 2.05527E-005 
77250 2.04991E-005 
77300 2.04456E-005 
77350 2.03923E-005 
77400 2.03391E-005 
77450 2.02861E-005 
77500 2.02333E-005 
77550 2.01807E-005 
77600 2.01282E-005 
77650 2.00759E-005 
77700 2.00238E-005 
77750 1.99719E-005 
77800 1.99201E-005 
77850 1.98685E-005 
77900 1.9817E-005 
77950 1.97658E-005 
78000 1.97147E-005 
78050 1.96637E-005 
78100 1.96129E-005 
78150 1.95623E-005 
78200 1.95118E-005 
78250 1.94616E-005 
78300 1.94114E-005 
78350 1.93615E-005 
78400 1.93116E-005 
78450 1.9262E-005 
78500 1.92125E-005 
78550 1.91632E-005 
78600 1.9114E-005 
78650 1.9065E-005 
78700 1.90161E-005 
78750 1.89674E-005 
78800 1.89189E-005 
78850 1.88705E-005 
78900 1.88222E-005 
78950 1.87741E-005 
79000 1.87262E-005 
79050 1.86784E-005 
79100 1.86308E-005 
79150 1.85833E-005 
79200 1.8536E-005 
79250 1.84888E-005 
79300 1.84418E-005 
79350 1.83949E-005 
79400 1.83482E-005 
79450 1.83016E-005 
79500 1.82552E-005 
79550 1.8209E-005 
79600 1.81629E-005 
79650 1.81169E-005 
79700 1.80711E-005 
79750 1.80254E-005 
79800 1.79798E-005 
79850 1.79344E-005 
79900 1.78892E-005 
79950 1.78441E-005 
80000 1.77991E-005 
80050 1.77543E-005 
80100 1.77096E-005 
80150 1.76651E-005 
80200 1.76207E-005 
80250 1.75764E-005 
80300 1.75323E-005 
80350 1.74883E-005 
80400 1.74445E-005 
80450 1.74008E-005 
80500 1.73572E-005 
80550 1.73138E-005 
80600 1.72705E-005 
80650 1.72273E-005 
80700 1.71843E-005 
80750 1.71414E-005 
80800 1.70986E-005 
80850 1.7056E-005 
80900 1.70135E-005 
80950 1.69712E-005 
81000 1.69289E-005 
81050 1.68868E-005 
81100 1.68449E-005 
81150 1.6803E-005 
81200 1.67613E-005 
81250 1.67198E-005 
81300 1.66783E-005 
81350 1.6637E-005 
81400 1.65958E-005 
81450 1.65547E-005 
81500 1.65138E-005 
81550 1.6473E-005 
81600 1.64323E-005 
81650 1.63918E-005 
81700 1.63513E-005 
81750 1.6311E-005 
81800 1.62708E-005 
81850 1.62308E-005 
81900 1.61909E-005 
81950 1.6151E-005 
82000 1.61113E-005 
82050 1.60718E-005 
82100 1.60323E-005 
82150 1.5993E-005 
82200 1.59538E-005 
82250 1.59147E-005 
82300 1.58758E-005 
82350 1.58369E-005 
82400 1.57982E-005 
82450 1.57596E-005 
82500 1.57211E-005 
82550 1.56827E-005 
82600 1.56445E-005 
82650 1.56063E-005 
82700 1.55683E-005 
82750 1.55304E-005 
82800 1.54926E-005 
82850 1.54549E-005 
82900 1.54174E-005 
82950 1.53799E-005 
83000 1.53426E-005 
83050 1.53054E-005 
83100 1.52683E-005 
83150 1.52313E-005 
83200 1.51944E-005 
83250 1.51576E-005 
83300 1.51209E-005 
83350 1.50844E-005 
83400 1.50479E-005 
83450 1.50116E-005 
83500 1.49754E-005 
83550 1.49393E-005 
83600 1.49032E-005 
83650 1.48673E-005 
83700 1.48316E-005 
83750 1.47959E-005 
83800 1.47603E-005 
83850 1.47248E-005 
83900 1.46895E-005 
83950 1.46542E-005 
84000 1.46191E-005 
84050 1.4584E-005 
84100 1.45491E-005 
84150 1.45143E-005 
84200 1.44796E-005 
84250 1.4445E-005 
84300 1.44104E-005 
84350 1.4376E-005 
84400 1.43417E-005 
84450 1.43075E-005 
84500 1.42734E-005 
84550 1.42394E-005 
84600 1.42055E-005 
84650 1.41717E-005 
84700 1.4138E-005 
84750 1.41044E-005 
84800 1.40709E-005 
84850 1.40376E-005 
84900 1.40043E-005 
84950 1.39711E-005 
85000 1.3938E-005 
85050 1.39049E-005 
85100 1.3872E-005 
85150 1.38392E-005 
85200 1.38065E-005 
85250 1.37739E-005 
85300 1.37413E-005 
85350 1.37089E-005 
85400 1.36766E-005 
85450 1.36443E-005 
85500 1.36122E-005 
85550 1.35801E-005 
85600 1.35482E-005 
85650 1.35163E-005 
85700 1.34846E-005 
85750 1.34529E-005 
85800 1.34213E-005 
85850 1.33898E-005 
85900 1.33584E-005 
85950 1.33271E-005 
86000 1.32959E-005 
86050 1.32648E-005 
86100 1.32338E-005 
86150 1.32028E-005 
86200 1.3172E-005 
86250 1.31412E-005 
86300 1.31105E-005 
86350 1.308E-005 
86400 1.30495E-005 
86450 1.30191E-005 
86500 1.29888E-005 
86550 1.29585E-005 
86600 1.29284E-005 
86650 1.28984E-005 
86700 1.28684E-005 
86750 1.28385E-005 
86800 1.28088E-005 
86850 1.27791E-005 
86900 1.27495E-005 
86950 1.27199E-005 
87000 1.26905E-005 
87050 1.26612E-005 
87100 1.26319E-005 
87150 1.26027E-005 
87200 1.25736E-005 
87250 1.25446E-005 
87300 1.25157E-005 
87350 1.24868E-005 
87400 1.24581E-005 
87450 1.24294E-005 
87500 1.24008E-005 
87550 1.23723E-005 
87600 1.23438E-005 
87650 1.23155E-005 
87700 1.22872E-005 
87750 1.2259E-005 
87800 1.22309E-005 
87850 1.22029E-005 
87900 1.21749E-005 
87950 1.21471E-005 
88000 1.21193E-005 
88050 1.20916E-005 
88100 1.20639E-005 
88150 1.20364E-005 
88200 1.20089E-005 
88250 1.19815E-005 
88300 1.19542E-005 
88350 1.19269E-005 
88400 1.18998E-005 
88450 1.18727E-005 
88500 1.18457E-005 
88550 1.18187E-005 
88600 1.17919E-005 
88650 1.17651E-005 
88700 1.17384E-005 
88750 1.17118E-005 
88800 1.16852E-005 
88850 1.16587E-005 
88900 1.16323E-005 
88950 1.1606E-005 
89000 1.15797E-005 
89050 1.15536E-005 
89100 1.15275E-005 
89150 1.15015E-005 
89200 1.14755E-005 
89250 1.14496E-005 
89300 1.14238E-005 
89350 1.13981E-005 
89400 1.13724E-005 
89450 1.13469E-005 
89500 1.13213E-005 
89550 1.12959E-005 
89600 1.12705E-005 
89650 1.12452E-005 
89700 1.122E-005 
89750 1.11948E-005 
89800 1.11698E-005 
89850 1.11447E-005 
89900 1.11198E-005 
89950 1.10949E-005 
90000 1.10701E-005 
90050 1.10454E-005 
90100 1.10207E-005 
90150 1.09961E-005 
90200 1.09716E-005 
90250 1.09471E-005 
90300 1.09227E-005 
90350 1.08984E-005 
90400 1.08741E-005 
90450 1.08499E-005 
90500 1.08258E-005 
90550 1.08017E-005 
90600 1.07777E-005 
90650 1.07538E-005 
90700 1.07299E-005 
90750 1.07062E-005 
90800 1.06824E-005 
90850 1.06588E-005 
90900 1.06352E-005 
90950 1.06116E-005 
91000 1.05882E-005 
91050 1.05648E-005 
91100 1.05414E-005 
91150 1.05182E-005 
91200 1.0495E-005 
91250 1.04718E-005 
91300 1.04487E-005 
91350 1.04257E-005 
91400 1.04028E-005 
91450 1.03799E-005 
91500 1.03571E-005 
91550 1.03343E-005 
91600 1.03116E-005 
91650 1.02889E-005 
91700 1.02664E-005 
91750 1.02439E-005 
91800 1.02214E-005 
91850 1.0199E-005 
91900 1.01767E-005 
91950 1.01544E-005 
92000 1.01322E-005 
92050 1.01101E-005 
92100 1.0088E-005 
92150 1.0066E-005 
92200 1.0044E-005 
92250 1.00221E-005 
92300 1.00002E-005 
92350 9.97845E-006 
92400 9.95672E-006 
92450 9.93506E-006 
92500 9.91344E-006 
92550 9.8919E-006 
92600 9.87041E-006 
92650 9.84897E-006 
92700 9.8276E-006 
92750 9.80628E-006 
92800 9.78502E-006 
92850 9.76382E-006 
92900 9.74268E-006 
92950 9.72159E-006 
93000 9.70056E-006 
93050 9.67959E-006 
93100 9.65868E-006 
93150 9.63782E-006 
93200 9.61702E-006 
93250 9.59627E-006 
93300 9.57558E-006 
93350 9.55495E-006 
93400 9.53437E-006 
93450 9.51385E-006 
93500 9.49339E-006 
93550 9.47297E-006 
93600 9.45262E-006 
93650 9.43231E-006 
93700 9.41207E-006 
93750 9.39187E-006 
93800 9.37174E-006 
93850 9.35165E-006 
93900 9.33162E-006 
93950 9.31164E-006 
94000 9.29172E-006 
94050 9.27184E-006 
94100 9.25203E-006 
94150 9.23227E-006 
94200 9.21255E-006 
94250 9.1929E-006 
94300 9.17329E-006 
94350 9.15373E-006 
94400 9.13423E-006 
94450 9.11478E-006 
94500 9.09538E-006 
94550 9.07603E-006 
94600 9.05674E-006 
94650 9.0375E-006 
94700 9.0183E-006 
94750 8.99916E-006 
94800 8.98007E-006 
94850 8.96103E-006 
94900 8.94204E-006 
94950 8.9231E-006 
95000 8.90421E-006 
95050 8.88537E-006 
95100 8.86658E-006 
95150 8.84784E-006 
95200 8.82914E-006 
95250 8.8105E-006 
95300 8.79191E-006 
95350 8.77336E-006 
95400 8.75487E-006 
95450 8.73642E-006 
95500 8.71802E-006 
95550 8.69967E-006 
95600 8.68137E-006 
95650 8.66312E-006 
95700 8.64491E-006 
95750 8.62675E-006 
95800 8.60864E-006 
95850 8.59058E-006 
95900 8.57257E-006 
95950 8.5546E-006 
96000 8.53668E-006 
96050 8.5188E-006 
96100 8.50098E-006 
96150 8.4832E-006 
96200 8.46546E-006 
96250 8.44777E-006 
96300 8.43013E-006 
96350 8.41254E-006 
96400 8.39499E-006 
96450 8.37748E-006 
96500 8.36003E-006 
96550 8.34262E-006 
96600 8.32526E-006 
96650 8.30794E-006 
96700 8.29067E-006 
96750 8.27344E-006 
96800 8.25626E-006 
96850 8.23912E-006 
96900 8.22202E-006 
96950 8.20497E-006 
97000 8.18797E-006 
97050 8.171E-006 
97100 8.15409E-006 
97150 8.13722E-006 
97200 8.12039E-006 
97250 8.1036E-006 
97300 8.08685E-006 
97350 8.07016E-006 
97400 8.0535E-006 
97450 8.03689E-006 
97500 8.02032E-006 
97550 8.00379E-006 
97600 7.9873E-006 
97650 7.97086E-006 
97700 7.95446E-006 
97750 7.9381E-006 
97800 7.92179E-006 
97850 7.90551E-006 
97900 7.88928E-006 
97950 7.87309E-006 
98000 7.85694E-006 
98050 7.84083E-006 
98100 7.82476E-006 
98150 7.80873E-006 
98200 7.79274E-006 
98250 7.7768E-006 
98300 7.7609E-006 
98350 7.74503E-006 
98400 7.72921E-006 
98450 7.71343E-006 
98500 7.69768E-006 
98550 7.68198E-006 
98600 7.66632E-006 
98650 7.6507E-006 
98700 7.63512E-006 
98750 7.61957E-006 
98800 7.60407E-006 
98850 7.5886E-006 
98900 7.57318E-006 
98950 7.5578E-006 
99000 7.54245E-006 
99050 7.52714E-006 
99100 7.51186E-006 
99150 7.49663E-006 
99200 7.48143E-006 
99250 7.46627E-006 
99300 7.45115E-006 
99350 7.43607E-006 
99400 7.42103E-006 
99450 7.40603E-006 
99500 7.39106E-006 
99550 7.37614E-006 
99600 7.36126E-006 
99650 7.34641E-006 
99700 7.33161E-006 
99750 7.31684E-006 
99800 7.30211E-006 
99850 7.28741E-006 
99900 7.27276E-006 
99950 7.25814E-006 
100000 7.24355E-006 
