#F U:\Beamline I20\I20-2_EDE\!M2 and filters heat load\matlab\Si-4p0mrad.dat
#C Si mirror 4.0mrad
#S 1 File written by xplot on Wed May 20 15:27:15 2009
#N 2
#L    Photon Energy [eV]  Intens after oe #1
50 0.99601 
100 0.933292 
150 0.949874 
200 0.957942 
250 0.960359 
300 0.962305 
350 0.963788 
400 0.965743 
450 0.967293 
500 0.96879 
550 0.97005 
600 0.971263 
650 0.97248 
700 0.973477 
750 0.974126 
800 0.974765 
850 0.975597 
900 0.976362 
950 0.97729 
1000 0.978127 
1050 0.978877 
1100 0.979502 
1150 0.979869 
1200 0.980209 
1250 0.980522 
1300 0.980798 
1350 0.981048 
1400 0.981261 
1450 0.981429 
1500 0.981552 
1550 0.981649 
1600 0.981658 
1650 0.981531 
1700 0.981182 
1750 0.980382 
1800 0.977911 
1850 0.684762 
1900 0.820453 
1950 0.83618 
2000 0.845561 
2050 0.852111 
2100 0.857257 
2150 0.861452 
2200 0.865016 
2250 0.868086 
2300 0.870838 
2350 0.873283 
2400 0.875515 
2450 0.877579 
2500 0.879473 
2550 0.881226 
2600 0.882876 
2650 0.884432 
2700 0.8859 
2750 0.887286 
2800 0.888591 
2850 0.889832 
2900 0.891021 
2950 0.892155 
3000 0.893238 
3050 0.894274 
3100 0.895269 
3150 0.896223 
3200 0.897139 
3250 0.898018 
3300 0.898864 
3350 0.899678 
3400 0.900462 
3450 0.901218 
3500 0.901946 
3550 0.902648 
3600 0.903312 
3650 0.903954 
3700 0.904573 
3750 0.905171 
3800 0.90575 
3850 0.906311 
3900 0.906837 
3950 0.907342 
4000 0.90783 
4050 0.908304 
4100 0.908761 
4150 0.909182 
4200 0.909589 
4250 0.909985 
4300 0.910364 
4350 0.91071 
4400 0.911046 
4450 0.911373 
4500 0.911666 
4550 0.911945 
4600 0.912216 
4650 0.912459 
4700 0.912682 
4750 0.9129 
4800 0.913089 
4850 0.913258 
4900 0.913422 
4950 0.913551 
5000 0.913669 
5050 0.913776 
5100 0.913846 
5150 0.913914 
5200 0.913953 
5250 0.91397 
5300 0.913978 
5350 0.913945 
5400 0.91391 
5450 0.913838 
5500 0.913749 
5550 0.913638 
5600 0.913495 
5650 0.913342 
5700 0.913141 
5750 0.912935 
5800 0.912676 
5850 0.912406 
5900 0.912089 
5950 0.911752 
6000 0.911371 
6050 0.91096 
6100 0.910504 
6150 0.91001 
6200 0.909469 
6250 0.908883 
6300 0.908244 
6350 0.907555 
6400 0.906806 
6450 0.905997 
6500 0.90511 
6550 0.904159 
6600 0.903117 
6650 0.902001 
6700 0.90077 
6750 0.899454 
6800 0.897989 
6850 0.896418 
6900 0.89467 
6950 0.892771 
7000 0.890667 
7050 0.888348 
7100 0.885773 
7150 0.88289 
7200 0.879673 
7250 0.876006 
7300 0.871858 
7350 0.867059 
7400 0.861492 
7450 0.854924 
7500 0.847036 
7550 0.837404 
7600 0.825236 
7650 0.809439 
7700 0.787946 
7750 0.757134 
7800 0.710946 
7850 0.64431 
7900 0.567093 
7950 0.497385 
8000 0.440622 
8050 0.394811 
8100 0.357255 
8150 0.325867 
8200 0.299199 
8250 0.276219 
8300 0.256179 
8350 0.238539 
8400 0.222874 
8450 0.208863 
8500 0.196262 
8550 0.184858 
8600 0.174492 
8650 0.16503 
8700 0.156356 
8750 0.148382 
8800 0.141029 
8850 0.134224 
8900 0.127918 
8950 0.122055 
9000 0.11659 
9050 0.111497 
9100 0.106732 
9150 0.102264 
9200 0.0980828 
9250 0.0941501 
9300 0.0904455 
9350 0.0869744 
9400 0.0836945 
9450 0.0805921 
9500 0.0777038 
9550 0.0749632 
9600 0.0723603 
9650 0.0700637 
9700 0.0678808 
9750 0.0657956 
9800 0.0634366 
9850 0.0611306 
9900 0.0589393 
9950 0.0568165 
10000 0.0547805 
10050 0.0528429 
10100 0.0510713 
10150 0.0494565 
10200 0.0479115 
10250 0.0464319 
10300 0.0450131 
10350 0.0436533 
10400 0.0423491 
10450 0.0411037 
10500 0.0399084 
10550 0.0387601 
10600 0.0376587 
10650 0.0366015 
10700 0.0355841 
10750 0.0346052 
10800 0.0336648 
10850 0.0327587 
10900 0.0318853 
10950 0.0310444 
11000 0.0302338 
11050 0.0294516 
11100 0.0286965 
11150 0.0279685 
11200 0.0272651 
11250 0.0265852 
11300 0.0259285 
11350 0.0252937 
11400 0.0246796 
11450 0.0240853 
11500 0.0235107 
11550 0.0229543 
11600 0.0224154 
11650 0.0218933 
11700 0.0213877 
11750 0.0208976 
11800 0.0204222 
11850 0.0199614 
11900 0.0195146 
11950 0.0190809 
12000 0.01866 
12050 0.0182514 
12100 0.0178546 
12150 0.0174692 
12200 0.0170947 
12250 0.016731 
12300 0.0163776 
12350 0.0160339 
12400 0.0156997 
12450 0.0153748 
12500 0.0150587 
12550 0.0147512 
12600 0.0144518 
12650 0.0141606 
12700 0.013877 
12750 0.0136009 
12800 0.013332 
12850 0.0130701 
12900 0.0128149 
12950 0.0125662 
13000 0.0123238 
13050 0.0120876 
13100 0.0118573 
13150 0.0116327 
13200 0.0114136 
13250 0.0111999 
13300 0.0109915 
13350 0.0107882 
13400 0.0105897 
13450 0.0103959 
13500 0.0102069 
13550 0.0100223 
13600 0.00984204 
13650 0.00966597 
13700 0.00949401 
13750 0.00932603 
13800 0.0091619 
13850 0.0090015 
13900 0.00884474 
13950 0.00869159 
14000 0.00854185 
14050 0.00839544 
14100 0.00825228 
14150 0.00811232 
14200 0.00797544 
14250 0.00784154 
14300 0.00771054 
14350 0.00758237 
14400 0.00745698 
14450 0.00733425 
14500 0.00721413 
14550 0.00709654 
14600 0.00698144 
14650 0.00686875 
14700 0.00675841 
14750 0.00665034 
14800 0.0065445 
14850 0.00644086 
14900 0.00633935 
14950 0.00623989 
15000 0.00614243 
15050 0.00604693 
15100 0.00595334 
15150 0.00586162 
15200 0.0057717 
15250 0.00568356 
15300 0.00559715 
15350 0.00551246 
15400 0.00542941 
15450 0.00534797 
15500 0.00526809 
15550 0.00518975 
15600 0.00511291 
15650 0.00503754 
15700 0.00496358 
15750 0.00489102 
15800 0.00481981 
15850 0.00474996 
15900 0.00468139 
15950 0.0046141 
16000 0.00454804 
16050 0.00448318 
16100 0.00441952 
16150 0.00435701 
16200 0.00429563 
16250 0.00423536 
16300 0.00417617 
16350 0.00411806 
16400 0.00406098 
16450 0.00400492 
16500 0.00394984 
16550 0.00389573 
16600 0.00384257 
16650 0.00379034 
16700 0.00373901 
16750 0.00368857 
16800 0.00363899 
16850 0.00359028 
16900 0.00354241 
16950 0.00349535 
17000 0.00344909 
17050 0.00340362 
17100 0.0033589 
17150 0.00331494 
17200 0.00327171 
17250 0.0032292 
17300 0.00318739 
17350 0.00314627 
17400 0.00310583 
17450 0.00306605 
17500 0.00302692 
17550 0.00298843 
17600 0.00295056 
17650 0.00291329 
17700 0.00287664 
17750 0.00284059 
17800 0.0028051 
17850 0.00277018 
17900 0.00273582 
17950 0.00270199 
18000 0.0026687 
18050 0.00263593 
18100 0.00260367 
18150 0.00257192 
18200 0.00254065 
18250 0.00250987 
18300 0.00247957 
18350 0.00244974 
18400 0.00242036 
18450 0.00239143 
18500 0.00236294 
18550 0.00233487 
18600 0.00230724 
18650 0.00228002 
18700 0.0022532 
18750 0.00222679 
18800 0.00220077 
18850 0.00217514 
18900 0.00214989 
18950 0.00212501 
19000 0.0021005 
19050 0.00207634 
19100 0.00205254 
19150 0.00202909 
19200 0.00200598 
19250 0.0019832 
19300 0.00196076 
19350 0.00193863 
19400 0.00191682 
19450 0.00189532 
19500 0.00187413 
19550 0.00185324 
19600 0.00183264 
19650 0.00181234 
19700 0.00179232 
19750 0.00177258 
19800 0.00175311 
19850 0.00173392 
19900 0.00171499 
19950 0.00169632 
20000 0.00167791 
20050 0.00165976 
20100 0.00164185 
20150 0.00162419 
20200 0.00160678 
20250 0.0015896 
20300 0.00157265 
20350 0.00155593 
20400 0.00153943 
20450 0.00152316 
20500 0.00150711 
20550 0.00149127 
20600 0.00147565 
20650 0.00146023 
20700 0.00144501 
20750 0.00142999 
20800 0.00141518 
20850 0.00140055 
20900 0.00138612 
20950 0.00137188 
21000 0.00135782 
21050 0.00134394 
21100 0.00133024 
21150 0.00131672 
21200 0.00130337 
21250 0.0012902 
21300 0.00127719 
21350 0.00126435 
21400 0.00125167 
21450 0.00123915 
21500 0.0012268 
21550 0.0012146 
21600 0.00120255 
21650 0.00119065 
21700 0.0011789 
21750 0.0011673 
21800 0.00115584 
21850 0.00114453 
21900 0.00113336 
21950 0.00112232 
22000 0.00111143 
22050 0.00110066 
22100 0.00109003 
22150 0.00107952 
22200 0.00106915 
22250 0.0010589 
22300 0.00104877 
22350 0.00103877 
22400 0.00102888 
22450 0.00101912 
22500 0.00100947 
22550 0.000999938 
22600 0.000990519 
22650 0.000981212 
22700 0.000972016 
22750 0.000962929 
22800 0.000953948 
22850 0.000945074 
22900 0.000936303 
22950 0.000927636 
23000 0.00091907 
23050 0.000910603 
23100 0.000902235 
23150 0.000893964 
23200 0.000885788 
23250 0.000877709 
23300 0.000869722 
23350 0.000861828 
23400 0.000854023 
23450 0.000846308 
23500 0.000838681 
23550 0.00083114 
23600 0.000823686 
23650 0.000816317 
23700 0.000809031 
23750 0.000801827 
23800 0.000794704 
23850 0.000787661 
23900 0.000780696 
23950 0.000773809 
24000 0.000766998 
24050 0.000760262 
24100 0.0007536 
24150 0.000747012 
24200 0.000740497 
24250 0.000734053 
24300 0.00072768 
24350 0.000721376 
24400 0.000715143 
24450 0.000708978 
24500 0.00070288 
24550 0.000696847 
24600 0.00069088 
24650 0.000684978 
24700 0.000679138 
24750 0.000673362 
24800 0.000667649 
24850 0.000661997 
24900 0.000656405 
24950 0.000650873 
25000 0.000645399 
25050 0.000639984 
25100 0.000634625 
25150 0.000629323 
25200 0.000624077 
25250 0.000618886 
25300 0.00061375 
25350 0.000608667 
25400 0.000603637 
25450 0.000598659 
25500 0.000593733 
25550 0.000588859 
25600 0.000584034 
25650 0.00057926 
25700 0.000574534 
25750 0.000569857 
25800 0.000565228 
25850 0.000560646 
25900 0.000556111 
25950 0.000551623 
26000 0.000547179 
26050 0.000542781 
26100 0.000538428 
26150 0.000534118 
26200 0.000529852 
26250 0.000525629 
26300 0.000521448 
26350 0.000517308 
26400 0.000513211 
26450 0.000509155 
26500 0.000505139 
26550 0.000501163 
26600 0.000497227 
26650 0.000493329 
26700 0.00048947 
26750 0.000485649 
26800 0.000481866 
26850 0.000478119 
26900 0.000474409 
26950 0.000470736 
27000 0.000467098 
27050 0.000463495 
27100 0.000459928 
27150 0.000456395 
27200 0.000452896 
27250 0.000449431 
27300 0.000445999 
27350 0.000442601 
27400 0.000439234 
27450 0.0004359 
27500 0.000432598 
27550 0.000429327 
27600 0.000426088 
27650 0.000422879 
27700 0.0004197 
27750 0.000416553 
27800 0.000413435 
27850 0.000410346 
27900 0.000407286 
27950 0.000404255 
28000 0.000401252 
28050 0.000398278 
28100 0.000395331 
28150 0.000392411 
28200 0.000389519 
28250 0.000386654 
28300 0.000383815 
28350 0.000381002 
28400 0.000378215 
28450 0.000375453 
28500 0.000372718 
28550 0.000370007 
28600 0.00036732 
28650 0.000364659 
28700 0.000362021 
28750 0.000359408 
28800 0.000356818 
28850 0.000354252 
28900 0.000351709 
28950 0.000349189 
29000 0.000346692 
29050 0.000344217 
29100 0.000341766 
29150 0.000339337 
29200 0.00033693 
29250 0.000334545 
29300 0.000332181 
29350 0.000329837 
29400 0.000327515 
29450 0.000325213 
29500 0.000322931 
29550 0.000320668 
29600 0.000318423 
29650 0.000316198 
29700 0.000313992 
29750 0.000311805 
29800 0.000309638 
29850 0.00030749 
29900 0.00030536 
29950 0.000303249 
30000 0.000301156 
30050 0.000299122 
30100 0.000297106 
30150 0.000295107 
30200 0.000293124 
30250 0.000291159 
30300 0.000289211 
30350 0.000287278 
30400 0.000285363 
30450 0.000283424 
30500 0.000281502 
30550 0.000279597 
30600 0.000277708 
30650 0.000275834 
30700 0.000273977 
30750 0.000272135 
30800 0.000270309 
30850 0.000268499 
30900 0.000266704 
30950 0.000264924 
31000 0.000263159 
31050 0.000261409 
31100 0.000259673 
31150 0.000257952 
31200 0.000256245 
31250 0.000254551 
31300 0.000252872 
31350 0.000251207 
31400 0.000249555 
31450 0.000247917 
31500 0.000246292 
31550 0.000244682 
31600 0.000243084 
31650 0.0002415 
31700 0.000239929 
31750 0.00023837 
31800 0.000236824 
31850 0.000235291 
31900 0.00023377 
31950 0.000232262 
32000 0.000230766 
32050 0.000229283 
32100 0.000227811 
32150 0.000226351 
32200 0.000224903 
32250 0.000223466 
32300 0.000222041 
32350 0.000220627 
32400 0.000219224 
32450 0.000217833 
32500 0.000216452 
32550 0.000215083 
32600 0.000213724 
32650 0.000212376 
32700 0.000211039 
32750 0.000209713 
32800 0.000208396 
32850 0.00020709 
32900 0.000205795 
32950 0.000204509 
33000 0.000203234 
33050 0.000201969 
33100 0.000200714 
33150 0.000199469 
33200 0.000198233 
33250 0.000197007 
33300 0.00019579 
33350 0.000194583 
33400 0.000193386 
33450 0.000192197 
33500 0.000191018 
33550 0.000189847 
33600 0.000188686 
33650 0.000187534 
33700 0.00018639 
33750 0.000185255 
33800 0.000184129 
33850 0.000183012 
33900 0.000181903 
33950 0.000180802 
34000 0.00017971 
34050 0.000178626 
34100 0.00017755 
34150 0.000176483 
34200 0.000175423 
34250 0.000174371 
34300 0.000173327 
34350 0.000172292 
34400 0.000171263 
34450 0.000170243 
34500 0.00016923 
34550 0.000168225 
34600 0.000167227 
34650 0.000166237 
34700 0.000165255 
34750 0.000164279 
34800 0.000163311 
34850 0.00016235 
34900 0.000161396 
34950 0.000160449 
35000 0.000159509 
35050 0.000158576 
35100 0.000157649 
35150 0.00015673 
35200 0.000155817 
35250 0.000154911 
35300 0.000154012 
35350 0.000153119 
35400 0.000152232 
35450 0.000151352 
35500 0.000150479 
35550 0.000149611 
35600 0.00014875 
35650 0.000147895 
35700 0.000147047 
35750 0.000146204 
35800 0.000145367 
35850 0.000144537 
35900 0.000143712 
35950 0.000142894 
36000 0.000142081 
36050 0.000141274 
36100 0.000140472 
36150 0.000139677 
36200 0.000138887 
36250 0.000138102 
36300 0.000137324 
36350 0.00013655 
36400 0.000135783 
36450 0.00013502 
36500 0.000134263 
36550 0.000133511 
36600 0.000132765 
36650 0.000132024 
36700 0.000131288 
36750 0.000130557 
36800 0.000129831 
36850 0.000129111 
36900 0.000128395 
36950 0.000127684 
37000 0.000126978 
37050 0.000126278 
37100 0.000125582 
37150 0.000124891 
37200 0.000124205 
37250 0.000123523 
37300 0.000122846 
37350 0.000122174 
37400 0.000121506 
37450 0.000120843 
37500 0.000120185 
37550 0.000119531 
37600 0.000118881 
37650 0.000118236 
37700 0.000117595 
37750 0.000116958 
37800 0.000116326 
37850 0.000115698 
37900 0.000115074 
37950 0.000114455 
38000 0.000113839 
38050 0.000113228 
38100 0.000112622 
38150 0.000112019 
38200 0.00011142 
38250 0.000110825 
38300 0.000110234 
38350 0.000109648 
38400 0.000109065 
38450 0.000108486 
38500 0.00010791 
38550 0.000107339 
38600 0.000106771 
38650 0.000106208 
38700 0.000105647 
38750 0.000105091 
38800 0.000104538 
38850 0.000103989 
38900 0.000103444 
38950 0.000102902 
39000 0.000102363 
39050 0.000101829 
39100 0.000101297 
39150 0.00010077 
39200 0.000100245 
39250 9.97242E-005 
39300 9.92066E-005 
39350 9.86924E-005 
39400 9.81815E-005 
39450 9.76739E-005 
39500 9.71697E-005 
39550 9.66686E-005 
39600 9.61709E-005 
39650 9.56763E-005 
39700 9.51849E-005 
39750 9.46967E-005 
39800 9.42116E-005 
39850 9.37296E-005 
39900 9.32507E-005 
39950 9.27749E-005 
40000 9.23021E-005 
40050 9.18325E-005 
40100 9.13658E-005 
40150 9.09022E-005 
40200 9.04414E-005 
40250 8.99836E-005 
40300 8.95287E-005 
40350 8.90767E-005 
40400 8.86276E-005 
40450 8.81813E-005 
40500 8.77377E-005 
40550 8.7297E-005 
40600 8.68591E-005 
40650 8.64239E-005 
40700 8.59914E-005 
40750 8.55617E-005 
40800 8.51346E-005 
40850 8.47103E-005 
40900 8.42885E-005 
40950 8.38694E-005 
41000 8.34529E-005 
41050 8.3039E-005 
41100 8.26277E-005 
41150 8.22189E-005 
41200 8.18126E-005 
41250 8.14089E-005 
41300 8.10076E-005 
41350 8.06089E-005 
41400 8.02126E-005 
41450 7.98187E-005 
41500 7.94272E-005 
41550 7.90382E-005 
41600 7.86515E-005 
41650 7.82672E-005 
41700 7.78853E-005 
41750 7.75057E-005 
41800 7.71284E-005 
41850 7.67534E-005 
41900 7.63807E-005 
41950 7.60101E-005 
42000 7.56418E-005 
42050 7.52757E-005 
42100 7.49118E-005 
42150 7.45502E-005 
42200 7.41907E-005 
42250 7.38334E-005 
42300 7.34782E-005 
42350 7.31253E-005 
42400 7.27745E-005 
42450 7.24259E-005 
42500 7.20793E-005 
42550 7.17348E-005 
42600 7.13924E-005 
42650 7.1052E-005 
42700 7.07136E-005 
42750 7.03773E-005 
42800 7.0043E-005 
42850 6.97106E-005 
42900 6.93803E-005 
42950 6.90518E-005 
43000 6.87254E-005 
43050 6.8401E-005 
43100 6.80785E-005 
43150 6.77579E-005 
43200 6.74392E-005 
43250 6.71224E-005 
43300 6.68074E-005 
43350 6.64943E-005 
43400 6.6183E-005 
43450 6.58736E-005 
43500 6.5566E-005 
43550 6.52601E-005 
43600 6.49561E-005 
43650 6.46538E-005 
43700 6.43533E-005 
43750 6.40545E-005 
43800 6.37575E-005 
43850 6.34621E-005 
43900 6.31685E-005 
43950 6.28766E-005 
44000 6.25863E-005 
44050 6.22977E-005 
44100 6.20108E-005 
44150 6.17256E-005 
44200 6.1442E-005 
44250 6.116E-005 
44300 6.08796E-005 
44350 6.06009E-005 
44400 6.03237E-005 
44450 6.00482E-005 
44500 5.97742E-005 
44550 5.95017E-005 
44600 5.92309E-005 
44650 5.89615E-005 
44700 5.86937E-005 
44750 5.84274E-005 
44800 5.81627E-005 
44850 5.78994E-005 
44900 5.76376E-005 
44950 5.73773E-005 
45000 5.71185E-005 
45050 5.68612E-005 
45100 5.66052E-005 
45150 5.63508E-005 
45200 5.60977E-005 
45250 5.58461E-005 
45300 5.55959E-005 
45350 5.53471E-005 
45400 5.50997E-005 
45450 5.48537E-005 
45500 5.46091E-005 
45550 5.43658E-005 
45600 5.41239E-005 
45650 5.38833E-005 
45700 5.36441E-005 
45750 5.34062E-005 
45800 5.31696E-005 
45850 5.29344E-005 
45900 5.27004E-005 
45950 5.24677E-005 
46000 5.22363E-005 
46050 5.20062E-005 
46100 5.17774E-005 
46150 5.15499E-005 
46200 5.13236E-005 
46250 5.10985E-005 
46300 5.08747E-005 
46350 5.06521E-005 
46400 5.04307E-005 
46450 5.02105E-005 
46500 4.99915E-005 
46550 4.97738E-005 
46600 4.95573E-005 
46650 4.9342E-005 
46700 4.91278E-005 
46750 4.89148E-005 
46800 4.8703E-005 
46850 4.84923E-005 
46900 4.82827E-005 
46950 4.80743E-005 
47000 4.7867E-005 
47050 4.76608E-005 
47100 4.74556E-005 
47150 4.72516E-005 
47200 4.70487E-005 
47250 4.68468E-005 
47300 4.66461E-005 
47350 4.64464E-005 
47400 4.62478E-005 
47450 4.60502E-005 
47500 4.58537E-005 
47550 4.56583E-005 
47600 4.54639E-005 
47650 4.52705E-005 
47700 4.50782E-005 
47750 4.48869E-005 
47800 4.46966E-005 
47850 4.45073E-005 
47900 4.4319E-005 
47950 4.41317E-005 
48000 4.39454E-005 
48050 4.37602E-005 
48100 4.35759E-005 
48150 4.33926E-005 
48200 4.32103E-005 
48250 4.30289E-005 
48300 4.28485E-005 
48350 4.2669E-005 
48400 4.24904E-005 
48450 4.23128E-005 
48500 4.21362E-005 
48550 4.19604E-005 
48600 4.17856E-005 
48650 4.16117E-005 
48700 4.14386E-005 
48750 4.12665E-005 
48800 4.10953E-005 
48850 4.0925E-005 
48900 4.07555E-005 
48950 4.0587E-005 
49000 4.04193E-005 
49050 4.02524E-005 
49100 4.00863E-005 
49150 3.99212E-005 
49200 3.97569E-005 
49250 3.95934E-005 
49300 3.94307E-005 
49350 3.9269E-005 
49400 3.9108E-005 
49450 3.89478E-005 
49500 3.87885E-005 
49550 3.86301E-005 
49600 3.84724E-005 
49650 3.83156E-005 
49700 3.81596E-005 
49750 3.80043E-005 
49800 3.78499E-005 
49850 3.76962E-005 
49900 3.75433E-005 
49950 3.73912E-005 
50000 3.72399E-005 
50050 3.70894E-005 
50100 3.69395E-005 
50150 3.67905E-005 
50200 3.66422E-005 
50250 3.64946E-005 
50300 3.63478E-005 
50350 3.62018E-005 
50400 3.60564E-005 
50450 3.59118E-005 
50500 3.57679E-005 
50550 3.56248E-005 
50600 3.54824E-005 
50650 3.53406E-005 
50700 3.51996E-005 
50750 3.50593E-005 
50800 3.49197E-005 
50850 3.47808E-005 
50900 3.46425E-005 
50950 3.4505E-005 
51000 3.43681E-005 
51050 3.4232E-005 
51100 3.40966E-005 
51150 3.39618E-005 
51200 3.38277E-005 
51250 3.36942E-005 
51300 3.35614E-005 
51350 3.34293E-005 
51400 3.32978E-005 
51450 3.3167E-005 
51500 3.30368E-005 
51550 3.29071E-005 
51600 3.27782E-005 
51650 3.26498E-005 
51700 3.25221E-005 
51750 3.23951E-005 
51800 3.22686E-005 
51850 3.21428E-005 
51900 3.20175E-005 
51950 3.18929E-005 
52000 3.17689E-005 
52050 3.16455E-005 
52100 3.15227E-005 
52150 3.14005E-005 
52200 3.12788E-005 
52250 3.11578E-005 
52300 3.10373E-005 
52350 3.09175E-005 
52400 3.07982E-005 
52450 3.06795E-005 
52500 3.05614E-005 
52550 3.04438E-005 
52600 3.03268E-005 
52650 3.02104E-005 
52700 3.00945E-005 
52750 2.99791E-005 
52800 2.98644E-005 
52850 2.97502E-005 
52900 2.96365E-005 
52950 2.95233E-005 
53000 2.94108E-005 
53050 2.92987E-005 
53100 2.91872E-005 
53150 2.90762E-005 
53200 2.89657E-005 
53250 2.88558E-005 
53300 2.87464E-005 
53350 2.86375E-005 
53400 2.85291E-005 
53450 2.84212E-005 
53500 2.83139E-005 
53550 2.82071E-005 
53600 2.81008E-005 
53650 2.7995E-005 
53700 2.78897E-005 
53750 2.77849E-005 
53800 2.76805E-005 
53850 2.75767E-005 
53900 2.74734E-005 
53950 2.73705E-005 
54000 2.72682E-005 
54050 2.71662E-005 
54100 2.70648E-005 
54150 2.69638E-005 
54200 2.68633E-005 
54250 2.67632E-005 
54300 2.66637E-005 
54350 2.65645E-005 
54400 2.64659E-005 
54450 2.63677E-005 
54500 2.627E-005 
54550 2.61727E-005 
54600 2.60758E-005 
54650 2.59794E-005 
54700 2.58836E-005 
54750 2.57882E-005 
54800 2.56933E-005 
54850 2.55987E-005 
54900 2.55043E-005 
54950 2.54107E-005 
55000 2.53175E-005 
55050 2.52246E-005 
55100 2.51321E-005 
55150 2.504E-005 
55200 2.49484E-005 
55250 2.48572E-005 
55300 2.47664E-005 
55350 2.46761E-005 
55400 2.45863E-005 
55450 2.44968E-005 
55500 2.44078E-005 
55550 2.43191E-005 
55600 2.42308E-005 
55650 2.41428E-005 
55700 2.40553E-005 
55750 2.39682E-005 
55800 2.38814E-005 
55850 2.37951E-005 
55900 2.37091E-005 
55950 2.36236E-005 
56000 2.35384E-005 
56050 2.34536E-005 
56100 2.33692E-005 
56150 2.32852E-005 
56200 2.32016E-005 
56250 2.31183E-005 
56300 2.30354E-005 
56350 2.29529E-005 
56400 2.28707E-005 
56450 2.2789E-005 
56500 2.27075E-005 
56550 2.26265E-005 
56600 2.25458E-005 
56650 2.24655E-005 
56700 2.23855E-005 
56750 2.23059E-005 
56800 2.22266E-005 
56850 2.21477E-005 
56900 2.20692E-005 
56950 2.1991E-005 
57000 2.19131E-005 
57050 2.18356E-005 
57100 2.17585E-005 
57150 2.16816E-005 
57200 2.16052E-005 
57250 2.1529E-005 
57300 2.14532E-005 
57350 2.13777E-005 
57400 2.13026E-005 
57450 2.12278E-005 
57500 2.11533E-005 
57550 2.10791E-005 
57600 2.10053E-005 
57650 2.09318E-005 
57700 2.08586E-005 
57750 2.07857E-005 
57800 2.07132E-005 
57850 2.0641E-005 
57900 2.0569E-005 
57950 2.04974E-005 
58000 2.04261E-005 
58050 2.03552E-005 
58100 2.02845E-005 
58150 2.02141E-005 
58200 2.01441E-005 
58250 2.00743E-005 
58300 2.00049E-005 
58350 1.99357E-005 
58400 1.98669E-005 
58450 1.97983E-005 
58500 1.97301E-005 
58550 1.96621E-005 
58600 1.95944E-005 
58650 1.9527E-005 
58700 1.94599E-005 
58750 1.93932E-005 
58800 1.93266E-005 
58850 1.92604E-005 
58900 1.91945E-005 
58950 1.91288E-005 
59000 1.90634E-005 
59050 1.89983E-005 
59100 1.89335E-005 
59150 1.88689E-005 
59200 1.88047E-005 
59250 1.87407E-005 
59300 1.8677E-005 
59350 1.86135E-005 
59400 1.85503E-005 
59450 1.84874E-005 
59500 1.84247E-005 
59550 1.83624E-005 
59600 1.83002E-005 
59650 1.82384E-005 
59700 1.81768E-005 
59750 1.81155E-005 
59800 1.80544E-005 
59850 1.79935E-005 
59900 1.7933E-005 
59950 1.78726E-005 
60000 1.78126E-005 
60050 1.77528E-005 
60100 1.76932E-005 
60150 1.76339E-005 
60200 1.75749E-005 
60250 1.75161E-005 
60300 1.74575E-005 
60350 1.73992E-005 
60400 1.73411E-005 
60450 1.72833E-005 
60500 1.72257E-005 
60550 1.71684E-005 
60600 1.71113E-005 
60650 1.70544E-005 
60700 1.69978E-005 
60750 1.69414E-005 
60800 1.68852E-005 
60850 1.68293E-005 
60900 1.67736E-005 
60950 1.67181E-005 
61000 1.66629E-005 
61050 1.66079E-005 
61100 1.65531E-005 
61150 1.64986E-005 
61200 1.64442E-005 
61250 1.63901E-005 
61300 1.63363E-005 
61350 1.62826E-005 
61400 1.62292E-005 
61450 1.6176E-005 
61500 1.6123E-005 
61550 1.60702E-005 
61600 1.60176E-005 
61650 1.59652E-005 
61700 1.59131E-005 
61750 1.58612E-005 
61800 1.58095E-005 
61850 1.57579E-005 
61900 1.57066E-005 
61950 1.56555E-005 
62000 1.56047E-005 
62050 1.5554E-005 
62100 1.55035E-005 
62150 1.54533E-005 
62200 1.54032E-005 
62250 1.53533E-005 
62300 1.53037E-005 
62350 1.52542E-005 
62400 1.5205E-005 
62450 1.51559E-005 
62500 1.51071E-005 
62550 1.50584E-005 
62600 1.501E-005 
62650 1.49617E-005 
62700 1.49136E-005 
62750 1.48658E-005 
62800 1.48181E-005 
62850 1.47706E-005 
62900 1.47233E-005 
62950 1.46762E-005 
63000 1.46293E-005 
63050 1.45825E-005 
63100 1.4536E-005 
63150 1.44896E-005 
63200 1.44434E-005 
63250 1.43974E-005 
63300 1.43516E-005 
63350 1.43059E-005 
63400 1.42605E-005 
63450 1.42152E-005 
63500 1.41701E-005 
63550 1.41252E-005 
63600 1.40804E-005 
63650 1.40359E-005 
63700 1.39915E-005 
63750 1.39473E-005 
63800 1.39032E-005 
63850 1.38594E-005 
63900 1.38157E-005 
63950 1.37722E-005 
64000 1.37288E-005 
64050 1.36856E-005 
64100 1.36427E-005 
64150 1.35998E-005 
64200 1.35572E-005 
64250 1.35147E-005 
64300 1.34723E-005 
64350 1.34302E-005 
64400 1.33882E-005 
64450 1.33464E-005 
64500 1.33047E-005 
64550 1.32632E-005 
64600 1.32218E-005 
64650 1.31807E-005 
64700 1.31396E-005 
64750 1.30988E-005 
64800 1.30581E-005 
64850 1.30175E-005 
64900 1.29771E-005 
64950 1.29369E-005 
65000 1.28968E-005 
65050 1.28569E-005 
65100 1.28171E-005 
65150 1.27775E-005 
65200 1.27381E-005 
65250 1.26988E-005 
65300 1.26596E-005 
65350 1.26206E-005 
65400 1.25818E-005 
65450 1.2543E-005 
65500 1.25045E-005 
65550 1.24661E-005 
65600 1.24278E-005 
65650 1.23897E-005 
65700 1.23517E-005 
65750 1.23139E-005 
65800 1.22762E-005 
65850 1.22387E-005 
65900 1.22013E-005 
65950 1.21641E-005 
66000 1.2127E-005 
66050 1.209E-005 
66100 1.20532E-005 
66150 1.20165E-005 
66200 1.198E-005 
66250 1.19435E-005 
66300 1.19073E-005 
66350 1.18712E-005 
66400 1.18352E-005 
66450 1.17993E-005 
66500 1.17636E-005 
66550 1.1728E-005 
66600 1.16926E-005 
66650 1.16573E-005 
66700 1.16221E-005 
66750 1.1587E-005 
66800 1.15521E-005 
66850 1.15173E-005 
66900 1.14827E-005 
66950 1.14481E-005 
67000 1.14137E-005 
67050 1.13795E-005 
67100 1.13453E-005 
67150 1.13113E-005 
67200 1.12774E-005 
67250 1.12437E-005 
67300 1.12101E-005 
67350 1.11766E-005 
67400 1.11432E-005 
67450 1.11099E-005 
67500 1.10768E-005 
67550 1.10438E-005 
67600 1.1011E-005 
67650 1.09782E-005 
67700 1.09456E-005 
67750 1.09131E-005 
67800 1.08807E-005 
67850 1.08485E-005 
67900 1.08163E-005 
67950 1.07843E-005 
68000 1.07524E-005 
68050 1.07206E-005 
68100 1.06889E-005 
68150 1.06573E-005 
68200 1.06259E-005 
68250 1.05946E-005 
68300 1.05634E-005 
68350 1.05323E-005 
68400 1.05013E-005 
68450 1.04704E-005 
68500 1.04396E-005 
68550 1.0409E-005 
68600 1.03785E-005 
68650 1.0348E-005 
68700 1.03177E-005 
68750 1.02875E-005 
68800 1.02575E-005 
68850 1.02275E-005 
68900 1.01976E-005 
68950 1.01678E-005 
69000 1.01382E-005 
69050 1.01087E-005 
69100 1.00792E-005 
69150 1.00499E-005 
69200 1.00207E-005 
69250 9.99156E-006 
69300 9.96255E-006 
69350 9.93365E-006 
69400 9.90485E-006 
69450 9.87616E-006 
69500 9.84757E-006 
69550 9.81908E-006 
69600 9.7907E-006 
69650 9.76242E-006 
69700 9.73424E-006 
69750 9.70616E-006 
69800 9.67819E-006 
69850 9.65031E-006 
69900 9.62254E-006 
69950 9.59486E-006 
70000 9.56729E-006 
70050 9.53982E-006 
70100 9.51245E-006 
70150 9.48518E-006 
70200 9.458E-006 
70250 9.43092E-006 
70300 9.40394E-006 
70350 9.37706E-006 
70400 9.35027E-006 
70450 9.32358E-006 
70500 9.29698E-006 
70550 9.27048E-006 
70600 9.24407E-006 
70650 9.21776E-006 
70700 9.19154E-006 
70750 9.16541E-006 
70800 9.13938E-006 
70850 9.11344E-006 
70900 9.08759E-006 
70950 9.06183E-006 
71000 9.03617E-006 
71050 9.01059E-006 
71100 8.98511E-006 
71150 8.95971E-006 
71200 8.93441E-006 
71250 8.90919E-006 
71300 8.88407E-006 
71350 8.85903E-006 
71400 8.83408E-006 
71450 8.80922E-006 
71500 8.78444E-006 
71550 8.75976E-006 
71600 8.73516E-006 
71650 8.71064E-006 
71700 8.68621E-006 
71750 8.66187E-006 
71800 8.63761E-006 
71850 8.61344E-006 
71900 8.58936E-006 
71950 8.56535E-006 
72000 8.54143E-006 
72050 8.51759E-006 
72100 8.49384E-006 
72150 8.47016E-006 
72200 8.44657E-006 
72250 8.42307E-006 
72300 8.39964E-006 
72350 8.37629E-006 
72400 8.35303E-006 
72450 8.32985E-006 
72500 8.30674E-006 
72550 8.28372E-006 
72600 8.26078E-006 
72650 8.23791E-006 
72700 8.21513E-006 
72750 8.19243E-006 
72800 8.1698E-006 
72850 8.14725E-006 
72900 8.12477E-006 
72950 8.10238E-006 
73000 8.08006E-006 
73050 8.05782E-006 
73100 8.03565E-006 
73150 8.01356E-006 
73200 7.99155E-006 
73250 7.96961E-006 
73300 7.94775E-006 
73350 7.92596E-006 
73400 7.90425E-006 
73450 7.88261E-006 
73500 7.86105E-006 
73550 7.83957E-006 
73600 7.81816E-006 
73650 7.79682E-006 
73700 7.77556E-006 
73750 7.75437E-006 
73800 7.73325E-006 
73850 7.71221E-006 
73900 7.69123E-006 
73950 7.67033E-006 
74000 7.6495E-006 
74050 7.62873E-006 
74100 7.60804E-006 
74150 7.58742E-006 
74200 7.56687E-006 
74250 7.54638E-006 
74300 7.52596E-006 
74350 7.50561E-006 
74400 7.48533E-006 
74450 7.46512E-006 
74500 7.44498E-006 
74550 7.4249E-006 
74600 7.40489E-006 
74650 7.38495E-006 
74700 7.36508E-006 
74750 7.34527E-006 
74800 7.32553E-006 
74850 7.30586E-006 
74900 7.28625E-006 
74950 7.26671E-006 
75000 7.24723E-006 
75050 7.22782E-006 
75100 7.20848E-006 
75150 7.18921E-006 
75200 7.16999E-006 
75250 7.15084E-006 
75300 7.13176E-006 
75350 7.11274E-006 
75400 7.09378E-006 
75450 7.07488E-006 
75500 7.05605E-006 
75550 7.03728E-006 
75600 7.01857E-006 
75650 6.99993E-006 
75700 6.98134E-006 
75750 6.96282E-006 
75800 6.94436E-006 
75850 6.92596E-006 
75900 6.90763E-006 
75950 6.88935E-006 
76000 6.87113E-006 
76050 6.85297E-006 
76100 6.83488E-006 
76150 6.81684E-006 
76200 6.79887E-006 
76250 6.78095E-006 
76300 6.76309E-006 
76350 6.74529E-006 
76400 6.72755E-006 
76450 6.70987E-006 
76500 6.69224E-006 
76550 6.67468E-006 
76600 6.65717E-006 
76650 6.63972E-006 
76700 6.62232E-006 
76750 6.60498E-006 
76800 6.5877E-006 
76850 6.57048E-006 
76900 6.55331E-006 
76950 6.5362E-006 
77000 6.51914E-006 
77050 6.50214E-006 
77100 6.4852E-006 
77150 6.46831E-006 
77200 6.45147E-006 
77250 6.43469E-006 
77300 6.41797E-006 
77350 6.40129E-006 
77400 6.38468E-006 
77450 6.36811E-006 
77500 6.3516E-006 
77550 6.33515E-006 
77600 6.31874E-006 
77650 6.30239E-006 
77700 6.2861E-006 
77750 6.26985E-006 
77800 6.25366E-006 
77850 6.23752E-006 
77900 6.22143E-006 
77950 6.2054E-006 
78000 6.18941E-006 
78050 6.17348E-006 
78100 6.1576E-006 
78150 6.14177E-006 
78200 6.12599E-006 
78250 6.11026E-006 
78300 6.09458E-006 
78350 6.07895E-006 
78400 6.06337E-006 
78450 6.04785E-006 
78500 6.03237E-006 
78550 6.01694E-006 
78600 6.00156E-006 
78650 5.98623E-006 
78700 5.97094E-006 
78750 5.9557E-006 
78800 5.94052E-006 
78850 5.92538E-006 
78900 5.91029E-006 
78950 5.89524E-006 
79000 5.88025E-006 
79050 5.8653E-006 
79100 5.8504E-006 
79150 5.83555E-006 
79200 5.82074E-006 
79250 5.80598E-006 
79300 5.79127E-006 
79350 5.77661E-006 
79400 5.762E-006 
79450 5.74743E-006 
79500 5.73291E-006 
79550 5.71844E-006 
79600 5.70401E-006 
79650 5.68963E-006 
79700 5.67529E-006 
79750 5.66099E-006 
79800 5.64675E-006 
79850 5.63254E-006 
79900 5.61839E-006 
79950 5.60427E-006 
80000 5.5902E-006 
80050 5.57618E-006 
80100 5.5622E-006 
80150 5.54826E-006 
80200 5.53436E-006 
80250 5.52051E-006 
80300 5.50671E-006 
80350 5.49294E-006 
80400 5.47922E-006 
80450 5.46555E-006 
80500 5.45191E-006 
80550 5.43832E-006 
80600 5.42477E-006 
80650 5.41126E-006 
80700 5.39779E-006 
80750 5.38437E-006 
80800 5.37099E-006 
80850 5.35765E-006 
80900 5.34435E-006 
80950 5.33109E-006 
81000 5.31787E-006 
81050 5.3047E-006 
81100 5.29156E-006 
81150 5.27847E-006 
81200 5.26541E-006 
81250 5.2524E-006 
81300 5.23943E-006 
81350 5.22649E-006 
81400 5.2136E-006 
81450 5.20075E-006 
81500 5.18793E-006 
81550 5.17516E-006 
81600 5.16242E-006 
81650 5.14973E-006 
81700 5.13707E-006 
81750 5.12445E-006 
81800 5.11187E-006 
81850 5.09933E-006 
81900 5.08683E-006 
81950 5.07436E-006 
82000 5.06194E-006 
82050 5.04955E-006 
82100 5.0372E-006 
82150 5.02489E-006 
82200 5.01261E-006 
82250 5.00038E-006 
82300 4.98818E-006 
82350 4.97602E-006 
82400 4.96389E-006 
82450 4.9518E-006 
82500 4.93975E-006 
82550 4.92774E-006 
82600 4.91576E-006 
82650 4.90381E-006 
82700 4.89191E-006 
82750 4.88004E-006 
82800 4.86821E-006 
82850 4.85641E-006 
82900 4.84465E-006 
82950 4.83292E-006 
83000 4.82123E-006 
83050 4.80957E-006 
83100 4.79795E-006 
83150 4.78636E-006 
83200 4.77481E-006 
83250 4.76329E-006 
83300 4.75181E-006 
83350 4.74036E-006 
83400 4.72895E-006 
83450 4.71757E-006 
83500 4.70622E-006 
83550 4.69491E-006 
83600 4.68363E-006 
83650 4.67239E-006 
83700 4.66118E-006 
83750 4.65E-006 
83800 4.63886E-006 
83850 4.62775E-006 
83900 4.61668E-006 
83950 4.60563E-006 
84000 4.59462E-006 
84050 4.58365E-006 
84100 4.57271E-006 
84150 4.5618E-006 
84200 4.55093E-006 
84250 4.54008E-006 
84300 4.52927E-006 
84350 4.51849E-006 
84400 4.50775E-006 
84450 4.49703E-006 
84500 4.48635E-006 
84550 4.4757E-006 
84600 4.46508E-006 
84650 4.45449E-006 
84700 4.44393E-006 
84750 4.43341E-006 
84800 4.42292E-006 
84850 4.41245E-006 
84900 4.40202E-006 
84950 4.39162E-006 
85000 4.38125E-006 
85050 4.3709E-006 
85100 4.36059E-006 
85150 4.35031E-006 
85200 4.34006E-006 
85250 4.32984E-006 
85300 4.31965E-006 
85350 4.30948E-006 
85400 4.29935E-006 
85450 4.28925E-006 
85500 4.27918E-006 
85550 4.26913E-006 
85600 4.25912E-006 
85650 4.24914E-006 
85700 4.23918E-006 
85750 4.22926E-006 
85800 4.21936E-006 
85850 4.20949E-006 
85900 4.19965E-006 
85950 4.18985E-006 
86000 4.18006E-006 
86050 4.17031E-006 
86100 4.16059E-006 
86150 4.15089E-006 
86200 4.14122E-006 
86250 4.13158E-006 
86300 4.12197E-006 
86350 4.11239E-006 
86400 4.10283E-006 
86450 4.09331E-006 
86500 4.0838E-006 
86550 4.07433E-006 
86600 4.06489E-006 
86650 4.05548E-006 
86700 4.04609E-006 
86750 4.03672E-006 
86800 4.02739E-006 
86850 4.01808E-006 
86900 4.0088E-006 
86950 3.99955E-006 
87000 3.99032E-006 
87050 3.98112E-006 
87100 3.97195E-006 
87150 3.9628E-006 
87200 3.95368E-006 
87250 3.94458E-006 
87300 3.93552E-006 
87350 3.92647E-006 
87400 3.91746E-006 
87450 3.90847E-006 
87500 3.8995E-006 
87550 3.89056E-006 
87600 3.88165E-006 
87650 3.87276E-006 
87700 3.8639E-006 
87750 3.85506E-006 
87800 3.84625E-006 
87850 3.83746E-006 
87900 3.8287E-006 
87950 3.81996E-006 
88000 3.81125E-006 
88050 3.80256E-006 
88100 3.7939E-006 
88150 3.78526E-006 
88200 3.77664E-006 
88250 3.76805E-006 
88300 3.75949E-006 
88350 3.75094E-006 
88400 3.74243E-006 
88450 3.73393E-006 
88500 3.72546E-006 
88550 3.71702E-006 
88600 3.7086E-006 
88650 3.7002E-006 
88700 3.69183E-006 
88750 3.68348E-006 
88800 3.67515E-006 
88850 3.66685E-006 
88900 3.65857E-006 
88950 3.65031E-006 
89000 3.64208E-006 
89050 3.63387E-006 
89100 3.62569E-006 
89150 3.61753E-006 
89200 3.60939E-006 
89250 3.60128E-006 
89300 3.59318E-006 
89350 3.58512E-006 
89400 3.57707E-006 
89450 3.56904E-006 
89500 3.56104E-006 
89550 3.55306E-006 
89600 3.54511E-006 
89650 3.53717E-006 
89700 3.52926E-006 
89750 3.52137E-006 
89800 3.5135E-006 
89850 3.50566E-006 
89900 3.49783E-006 
89950 3.49003E-006 
90000 3.48225E-006 
90050 3.47449E-006 
90100 3.46675E-006 
90150 3.45903E-006 
90200 3.45134E-006 
90250 3.44367E-006 
90300 3.43601E-006 
90350 3.42838E-006 
90400 3.42077E-006 
90450 3.41318E-006 
90500 3.40561E-006 
90550 3.39807E-006 
90600 3.39054E-006 
90650 3.38304E-006 
90700 3.37555E-006 
90750 3.36809E-006 
90800 3.36065E-006 
90850 3.35322E-006 
90900 3.34582E-006 
90950 3.33844E-006 
91000 3.33108E-006 
91050 3.32374E-006 
91100 3.31642E-006 
91150 3.30912E-006 
91200 3.30184E-006 
91250 3.29458E-006 
91300 3.28734E-006 
91350 3.28011E-006 
91400 3.27291E-006 
91450 3.26573E-006 
91500 3.25857E-006 
91550 3.25143E-006 
91600 3.24431E-006 
91650 3.23721E-006 
91700 3.23012E-006 
91750 3.22306E-006 
91800 3.21601E-006 
91850 3.20899E-006 
91900 3.20198E-006 
91950 3.195E-006 
92000 3.18803E-006 
92050 3.18108E-006 
92100 3.17415E-006 
92150 3.16724E-006 
92200 3.16035E-006 
92250 3.15347E-006 
92300 3.14662E-006 
92350 3.13978E-006 
92400 3.13296E-006 
92450 3.12616E-006 
92500 3.11938E-006 
92550 3.11262E-006 
92600 3.10588E-006 
92650 3.09915E-006 
92700 3.09244E-006 
92750 3.08575E-006 
92800 3.07908E-006 
92850 3.07243E-006 
92900 3.06579E-006 
92950 3.05918E-006 
93000 3.05258E-006 
93050 3.046E-006 
93100 3.03943E-006 
93150 3.03289E-006 
93200 3.02636E-006 
93250 3.01985E-006 
93300 3.01336E-006 
93350 3.00688E-006 
93400 3.00042E-006 
93450 2.99398E-006 
93500 2.98756E-006 
93550 2.98115E-006 
93600 2.97476E-006 
93650 2.96839E-006 
93700 2.96204E-006 
93750 2.9557E-006 
93800 2.94938E-006 
93850 2.94307E-006 
93900 2.93679E-006 
93950 2.93052E-006 
94000 2.92426E-006 
94050 2.91803E-006 
94100 2.91181E-006 
94150 2.9056E-006 
94200 2.89942E-006 
94250 2.89324E-006 
94300 2.88709E-006 
94350 2.88095E-006 
94400 2.87483E-006 
94450 2.86873E-006 
94500 2.86264E-006 
94550 2.85656E-006 
94600 2.85051E-006 
94650 2.84447E-006 
94700 2.83844E-006 
94750 2.83243E-006 
94800 2.82644E-006 
94850 2.82046E-006 
94900 2.8145E-006 
94950 2.80855E-006 
95000 2.80262E-006 
95050 2.79671E-006 
95100 2.79081E-006 
95150 2.78493E-006 
95200 2.77906E-006 
95250 2.77321E-006 
95300 2.76737E-006 
95350 2.76155E-006 
95400 2.75574E-006 
95450 2.74995E-006 
95500 2.74417E-006 
95550 2.73841E-006 
95600 2.73266E-006 
95650 2.72693E-006 
95700 2.72122E-006 
95750 2.71552E-006 
95800 2.70983E-006 
95850 2.70416E-006 
95900 2.6985E-006 
95950 2.69286E-006 
96000 2.68723E-006 
96050 2.68162E-006 
96100 2.67603E-006 
96150 2.67044E-006 
96200 2.66487E-006 
96250 2.65932E-006 
96300 2.65378E-006 
96350 2.64826E-006 
96400 2.64275E-006 
96450 2.63725E-006 
96500 2.63177E-006 
96550 2.6263E-006 
96600 2.62085E-006 
96650 2.61541E-006 
96700 2.60999E-006 
96750 2.60458E-006 
96800 2.59918E-006 
96850 2.5938E-006 
96900 2.58843E-006 
96950 2.58308E-006 
97000 2.57774E-006 
97050 2.57241E-006 
97100 2.5671E-006 
97150 2.5618E-006 
97200 2.55651E-006 
97250 2.55124E-006 
97300 2.54599E-006 
97350 2.54074E-006 
97400 2.53551E-006 
97450 2.53029E-006 
97500 2.52509E-006 
97550 2.5199E-006 
97600 2.51472E-006 
97650 2.50956E-006 
97700 2.50441E-006 
97750 2.49927E-006 
97800 2.49414E-006 
97850 2.48903E-006 
97900 2.48393E-006 
97950 2.47885E-006 
98000 2.47378E-006 
98050 2.46872E-006 
98100 2.46367E-006 
98150 2.45864E-006 
98200 2.45361E-006 
98250 2.44861E-006 
98300 2.44361E-006 
98350 2.43863E-006 
98400 2.43366E-006 
98450 2.4287E-006 
98500 2.42376E-006 
98550 2.41882E-006 
98600 2.4139E-006 
98650 2.409E-006 
98700 2.4041E-006 
98750 2.39922E-006 
98800 2.39435E-006 
98850 2.38949E-006 
98900 2.38465E-006 
98950 2.37982E-006 
99000 2.375E-006 
99050 2.37018E-006 
99100 2.36539E-006 
99150 2.3606E-006 
99200 2.35583E-006 
99250 2.35107E-006 
99300 2.34632E-006 
99350 2.34158E-006 
99400 2.33685E-006 
99450 2.33214E-006 
99500 2.32744E-006 
99550 2.32275E-006 
99600 2.31808E-006 
99650 2.31341E-006 
99700 2.30876E-006 
99750 2.30412E-006 
99800 2.29949E-006 
99850 2.29488E-006 
99900 2.29027E-006 
99950 2.28568E-006 
100000 2.2811E-006 
