#F U:\Beamline I20\I20-1_EDE\GDA-EDE\power-calculation\Si-4p75mrad.dat
#C Si 4.75mrad
#S 1 File written by xplot on Mon Sep 09 11:45:16 2013
#N 2
#L    Photon Energy [eV]  Intens after oe #1
50 0.995263 
100 0.92129 
150 0.940756 
200 0.950249 
250 0.953095 
300 0.955385 
350 0.957129 
400 0.95943 
450 0.961255 
500 0.963017 
550 0.964498 
600 0.965926 
650 0.967358 
700 0.968529 
750 0.969289 
800 0.970037 
850 0.971013 
900 0.971911 
950 0.973001 
1000 0.973984 
1050 0.974863 
1100 0.975595 
1150 0.97602 
1200 0.976412 
1250 0.976773 
1300 0.977088 
1350 0.977373 
1400 0.977612 
1450 0.977798 
1500 0.977929 
1550 0.978027 
1600 0.978018 
1650 0.977844 
1700 0.977401 
1750 0.976408 
1800 0.973375 
1850 0.631799 
1900 0.787647 
1950 0.805888 
2000 0.816748 
2050 0.824308 
2100 0.830228 
2150 0.835037 
2200 0.839107 
2250 0.842598 
2300 0.845716 
2350 0.848473 
2400 0.850979 
2450 0.853287 
2500 0.855394 
2550 0.857333 
2600 0.859149 
2650 0.860855 
2700 0.862452 
2750 0.863952 
2800 0.865354 
2850 0.866677 
2900 0.867938 
2950 0.86913 
3000 0.870258 
3050 0.871329 
3100 0.872347 
3150 0.873314 
3200 0.874231 
3250 0.875101 
3300 0.875927 
3350 0.876711 
3400 0.877455 
3450 0.87816 
3500 0.878828 
3550 0.879459 
3600 0.880039 
3650 0.880586 
3700 0.8811 
3750 0.881582 
3800 0.882034 
3850 0.882457 
3900 0.88283 
3950 0.883168 
4000 0.883479 
4050 0.883762 
4100 0.884015 
4150 0.884212 
4200 0.884383 
4250 0.884528 
4300 0.88464 
4350 0.884696 
4400 0.884726 
4450 0.884731 
4500 0.884674 
4550 0.884583 
4600 0.884465 
4650 0.88429 
4700 0.884068 
4750 0.883815 
4800 0.8835 
4850 0.883132 
4900 0.882728 
4950 0.882246 
5000 0.881713 
5050 0.881129 
5100 0.880453 
5150 0.879728 
5200 0.878914 
5250 0.878014 
5300 0.877041 
5350 0.875943 
5400 0.874765 
5450 0.873452 
5500 0.872019 
5550 0.870448 
5600 0.86871 
5650 0.86682 
5700 0.864702 
5750 0.862395 
5800 0.859798 
5850 0.85694 
5900 0.853722 
5950 0.850131 
6000 0.84606 
6050 0.841443 
6100 0.836138 
6150 0.830004 
6200 0.822816 
6250 0.814281 
6300 0.803962 
6350 0.791226 
6400 0.775067 
6450 0.753891 
6500 0.72502 
6550 0.684355 
6600 0.627565 
6650 0.557577 
6700 0.487874 
6750 0.428163 
6800 0.37938 
6850 0.339522 
6900 0.306504 
6950 0.278733 
7000 0.255047 
7050 0.234596 
7100 0.216754 
7150 0.201049 
7200 0.187118 
7250 0.174681 
7300 0.16351 
7350 0.153424 
7400 0.144276 
7450 0.135946 
7500 0.128333 
7550 0.12135 
7600 0.114925 
7650 0.108998 
7700 0.103516 
7750 0.0984339 
7800 0.0937113 
7850 0.0893154 
7900 0.085214 
7950 0.081381 
8000 0.0777928 
8050 0.074428 
8100 0.0712696 
8150 0.0682992 
8200 0.0655026 
8250 0.0628665 
8300 0.0603779 
8350 0.0580272 
8400 0.0558036 
8450 0.0536978 
8500 0.0517032 
8550 0.0498103 
8600 0.0480131 
8650 0.0463057 
8700 0.0446812 
8750 0.0431357 
8800 0.0416637 
8850 0.0402601 
8900 0.0389223 
8950 0.0376453 
9000 0.036425 
9050 0.0352609 
9100 0.0341472 
9150 0.033081 
9200 0.0320634 
9250 0.031088 
9300 0.0301525 
9350 0.0292611 
9400 0.028405 
9450 0.0275826 
9500 0.0268058 
9550 0.0260583 
9600 0.0253388 
9650 0.0246962 
9700 0.0240783 
9750 0.0234815 
9800 0.0227987 
9850 0.0221229 
9900 0.0214731 
9950 0.0208362 
10000 0.0202185 
10050 0.0196242 
10100 0.0190752 
10150 0.01857 
10200 0.0180822 
10250 0.0176111 
10300 0.0171555 
10350 0.0167153 
10400 0.0162898 
10450 0.0158804 
10500 0.0154845 
10550 0.0151015 
10600 0.0147315 
10650 0.014374 
10700 0.0140278 
10750 0.0136925 
10800 0.0133685 
10850 0.0130544 
10900 0.0127498 
10950 0.0124549 
11000 0.0121692 
11050 0.0118919 
11100 0.0116228 
11150 0.0113621 
11200 0.011109 
11250 0.0108631 
11300 0.0106245 
11350 0.0103928 
11400 0.0101676 
11450 0.00994878 
11500 0.00973628 
11550 0.00952968 
11600 0.00932874 
11650 0.0091333 
11700 0.0089433 
11750 0.00875839 
11800 0.00857841 
11850 0.00840329 
11900 0.00823289 
11950 0.00806694 
12000 0.00790529 
12050 0.00774787 
12100 0.00759452 
12150 0.00744506 
12200 0.00729939 
12250 0.00715748 
12300 0.00701915 
12350 0.00688426 
12400 0.00675269 
12450 0.00662443 
12500 0.00649932 
12550 0.00637724 
12600 0.00625809 
12650 0.00614188 
12700 0.00602845 
12750 0.0059177 
12800 0.00580956 
12850 0.00570399 
12900 0.00560089 
12950 0.00550018 
13000 0.00540179 
13050 0.00530567 
13100 0.00521177 
13150 0.00512 
13200 0.00503029 
13250 0.0049426 
13300 0.0048569 
13350 0.0047731 
13400 0.00469114 
13450 0.00461099 
13500 0.00453262 
13550 0.00445596 
13600 0.00438094 
13650 0.00430754 
13700 0.00423573 
13750 0.00416545 
13800 0.00409666 
13850 0.00402931 
13900 0.00396338 
13950 0.00389886 
14000 0.00383568 
14050 0.0037738 
14100 0.00371319 
14150 0.00365384 
14200 0.00359571 
14250 0.00353876 
14300 0.00348295 
14350 0.00342827 
14400 0.0033747 
14450 0.00332219 
14500 0.00327072 
14550 0.00322026 
14600 0.00317081 
14650 0.00312232 
14700 0.00307478 
14750 0.00302816 
14800 0.00298243 
14850 0.00293761 
14900 0.00289364 
14950 0.00285051 
15000 0.00280819 
15050 0.00276668 
15100 0.00272594 
15150 0.00268597 
15200 0.00264675 
15250 0.00260824 
15300 0.00257046 
15350 0.00253338 
15400 0.00249698 
15450 0.00246125 
15500 0.00242617 
15550 0.00239172 
15600 0.0023579 
15650 0.00232468 
15700 0.00229206 
15750 0.00226002 
15800 0.00222855 
15850 0.00219764 
15900 0.00216728 
15950 0.00213745 
16000 0.00210814 
16050 0.00207933 
16100 0.00205103 
16150 0.00202322 
16200 0.00199588 
16250 0.00196901 
16300 0.0019426 
16350 0.00191665 
16400 0.00189114 
16450 0.00186606 
16500 0.0018414 
16550 0.00181715 
16600 0.00179331 
16650 0.00176986 
16700 0.00174681 
16750 0.00172413 
16800 0.00170182 
16850 0.00167989 
16900 0.00165831 
16950 0.00163709 
17000 0.00161621 
17050 0.00159567 
17100 0.00157546 
17150 0.00155558 
17200 0.00153601 
17250 0.00151675 
17300 0.0014978 
17350 0.00147914 
17400 0.00146079 
17450 0.00144272 
17500 0.00142493 
17550 0.00140742 
17600 0.00139018 
17650 0.00137321 
17700 0.0013565 
17750 0.00134005 
17800 0.00132386 
17850 0.00130791 
17900 0.00129221 
17950 0.00127674 
18000 0.00126151 
18050 0.00124651 
18100 0.00123173 
18150 0.00121718 
18200 0.00120284 
18250 0.00118872 
18300 0.0011748 
18350 0.0011611 
18400 0.00114759 
18450 0.00113429 
18500 0.00112117 
18550 0.00110825 
18600 0.00109552 
18650 0.00108297 
18700 0.00107061 
18750 0.00105842 
18800 0.00104641 
18850 0.00103456 
18900 0.0010229 
18950 0.00101139 
19000 0.00100005 
19050 0.000988873 
19100 0.00097785 
19150 0.000966983 
19200 0.000956271 
19250 0.000945709 
19300 0.000935294 
19350 0.000925023 
19400 0.000914894 
19450 0.000904905 
19500 0.000895054 
19550 0.000885338 
19600 0.000875755 
19650 0.000866303 
19700 0.00085698 
19750 0.000847782 
19800 0.00083871 
19850 0.000829759 
19900 0.00082093 
19950 0.000812218 
20000 0.000803623 
20050 0.000795143 
20100 0.000786775 
20150 0.000778521 
20200 0.000770375 
20250 0.000762337 
20300 0.000754404 
20350 0.000746575 
20400 0.000738849 
20450 0.000731225 
20500 0.0007237 
20550 0.000716273 
20600 0.000708942 
20650 0.000701705 
20700 0.000694561 
20750 0.000687509 
20800 0.000680547 
20850 0.000673674 
20900 0.000666888 
20950 0.000660188 
21000 0.000653573 
21050 0.000647042 
21100 0.000640592 
21150 0.000634224 
21200 0.000627936 
21250 0.000621725 
21300 0.000615592 
21350 0.000609536 
21400 0.000603554 
21450 0.000597647 
21500 0.000591813 
21550 0.000586051 
21600 0.000580359 
21650 0.000574737 
21700 0.000569184 
21750 0.000563698 
21800 0.000558279 
21850 0.000552927 
21900 0.000547639 
21950 0.000542414 
22000 0.000537252 
22050 0.000532152 
22100 0.000527113 
22150 0.000522134 
22200 0.000517214 
22250 0.000512353 
22300 0.000507549 
22350 0.000502801 
22400 0.00049811 
22450 0.000493473 
22500 0.000488891 
22550 0.000484362 
22600 0.000479886 
22650 0.000475462 
22700 0.00047109 
22750 0.000466767 
22800 0.000462495 
22850 0.000458272 
22900 0.000454097 
22950 0.000449971 
23000 0.000445891 
23050 0.000441858 
23100 0.00043787 
23150 0.000433928 
23200 0.000430031 
23250 0.000426178 
23300 0.000422369 
23350 0.000418602 
23400 0.000414878 
23450 0.000411196 
23500 0.000407554 
23550 0.000403953 
23600 0.000400392 
23650 0.000396872 
23700 0.00039339 
23750 0.000389946 
23800 0.000386541 
23850 0.000383173 
23900 0.000379841 
23950 0.000376546 
24000 0.000373287 
24050 0.000370063 
24100 0.000366873 
24150 0.000363719 
24200 0.000360598 
24250 0.000357511 
24300 0.000354457 
24350 0.000351436 
24400 0.000348448 
24450 0.000345492 
24500 0.000342567 
24550 0.000339673 
24600 0.00033681 
24650 0.000333978 
24700 0.000331175 
24750 0.000328402 
24800 0.000325659 
24850 0.000322944 
24900 0.000320258 
24950 0.0003176 
25000 0.00031497 
25050 0.000312367 
25100 0.000309791 
25150 0.000307241 
25200 0.000304718 
25250 0.000302222 
25300 0.00029975 
25350 0.000297304 
25400 0.000294883 
25450 0.000292487 
25500 0.000290116 
25550 0.000287768 
25600 0.000285445 
25650 0.000283145 
25700 0.000280868 
25750 0.000278614 
25800 0.000276383 
25850 0.000274174 
25900 0.000271987 
25950 0.000269823 
26000 0.00026768 
26050 0.000265558 
26100 0.000263458 
26150 0.000261378 
26200 0.000259319 
26250 0.00025728 
26300 0.000255261 
26350 0.000253263 
26400 0.000251284 
26450 0.000249324 
26500 0.000247384 
26550 0.000245463 
26600 0.000243561 
26650 0.000241677 
26700 0.000239811 
26750 0.000237963 
26800 0.000236134 
26850 0.000234322 
26900 0.000232527 
26950 0.00023075 
27000 0.00022899 
27050 0.000227246 
27100 0.000225519 
27150 0.000223809 
27200 0.000222115 
27250 0.000220437 
27300 0.000218775 
27350 0.000217129 
27400 0.000215498 
27450 0.000213882 
27500 0.000212282 
27550 0.000210697 
27600 0.000209126 
27650 0.000207571 
27700 0.000206029 
27750 0.000204503 
27800 0.000202991 
27850 0.000201493 
27900 0.000200008 
27950 0.000198537 
28000 0.00019708 
28050 0.000195637 
28100 0.000194206 
28150 0.000192789 
28200 0.000191384 
28250 0.000189993 
28300 0.000188614 
28350 0.000187248 
28400 0.000185894 
28450 0.000184552 
28500 0.000183223 
28550 0.000181906 
28600 0.0001806 
28650 0.000179306 
28700 0.000178024 
28750 0.000176753 
28800 0.000175494 
28850 0.000174246 
28900 0.000173009 
28950 0.000171783 
29000 0.000170568 
29050 0.000169364 
29100 0.000168171 
29150 0.000166989 
29200 0.000165818 
29250 0.000164656 
29300 0.000163505 
29350 0.000162364 
29400 0.000161233 
29450 0.000160112 
29500 0.000159001 
29550 0.000157898 
29600 0.000156804 
29650 0.00015572 
29700 0.000154645 
29750 0.00015358 
29800 0.000152523 
29850 0.000151476 
29900 0.000150438 
29950 0.000149408 
30000 0.000148388 
30050 0.000147396 
30100 0.000146413 
30150 0.000145437 
30200 0.00014447 
30250 0.000143512 
30300 0.000142561 
30350 0.000141618 
30400 0.000140683 
30450 0.000139737 
30500 0.000138799 
30550 0.000137869 
30600 0.000136946 
30650 0.000136032 
30700 0.000135125 
30750 0.000134225 
30800 0.000133333 
30850 0.000132449 
30900 0.000131572 
30950 0.000130702 
31000 0.00012984 
31050 0.000128985 
31100 0.000128136 
31150 0.000127295 
31200 0.000126461 
31250 0.000125633 
31300 0.000124812 
31350 0.000123997 
31400 0.00012319 
31450 0.000122389 
31500 0.000121594 
31550 0.000120806 
31600 0.000120025 
31650 0.00011925 
31700 0.000118481 
31750 0.000117718 
31800 0.000116962 
31850 0.000116212 
31900 0.000115467 
31950 0.000114729 
32000 0.000113997 
32050 0.00011327 
32100 0.00011255 
32150 0.000111835 
32200 0.000111126 
32250 0.000110422 
32300 0.000109724 
32350 0.000109032 
32400 0.000108344 
32450 0.000107663 
32500 0.000106986 
32550 0.000106315 
32600 0.00010565 
32650 0.000104989 
32700 0.000104334 
32750 0.000103683 
32800 0.000103038 
32850 0.000102398 
32900 0.000101763 
32950 0.000101133 
33000 0.000100507 
33050 9.98868E-005 
33100 9.92713E-005 
33150 9.86605E-005 
33200 9.80544E-005 
33250 9.74529E-005 
33300 9.68561E-005 
33350 9.62639E-005 
33400 9.56762E-005 
33450 9.5093E-005 
33500 9.45142E-005 
33550 9.39399E-005 
33600 9.33699E-005 
33650 9.28042E-005 
33700 9.22429E-005 
33750 9.16858E-005 
33800 9.11329E-005 
33850 9.05842E-005 
33900 9.00397E-005 
33950 8.94992E-005 
34000 8.89629E-005 
34050 8.84305E-005 
34100 8.79022E-005 
34150 8.73777E-005 
34200 8.68571E-005 
34250 8.63405E-005 
34300 8.58277E-005 
34350 8.53187E-005 
34400 8.48134E-005 
34450 8.4312E-005 
34500 8.38142E-005 
34550 8.33202E-005 
34600 8.283E-005 
34650 8.23433E-005 
34700 8.18602E-005 
34750 8.13806E-005 
34800 8.09046E-005 
34850 8.0432E-005 
34900 7.99629E-005 
34950 7.94972E-005 
35000 7.9035E-005 
35050 7.8576E-005 
35100 7.81205E-005 
35150 7.76682E-005 
35200 7.72192E-005 
35250 7.67734E-005 
35300 7.63309E-005 
35350 7.58916E-005 
35400 7.54554E-005 
35450 7.50224E-005 
35500 7.45925E-005 
35550 7.41656E-005 
35600 7.37419E-005 
35650 7.33211E-005 
35700 7.29034E-005 
35750 7.24886E-005 
35800 7.20768E-005 
35850 7.16679E-005 
35900 7.12619E-005 
35950 7.08588E-005 
36000 7.04585E-005 
36050 7.00611E-005 
36100 6.96665E-005 
36150 6.92746E-005 
36200 6.88856E-005 
36250 6.84992E-005 
36300 6.81156E-005 
36350 6.77347E-005 
36400 6.73564E-005 
36450 6.69808E-005 
36500 6.66078E-005 
36550 6.62374E-005 
36600 6.58696E-005 
36650 6.55044E-005 
36700 6.51417E-005 
36750 6.47815E-005 
36800 6.44238E-005 
36850 6.40686E-005 
36900 6.37159E-005 
36950 6.33655E-005 
37000 6.30176E-005 
37050 6.26721E-005 
37100 6.23291E-005 
37150 6.19883E-005 
37200 6.165E-005 
37250 6.13139E-005 
37300 6.09801E-005 
37350 6.06486E-005 
37400 6.03193E-005 
37450 5.99923E-005 
37500 5.96675E-005 
37550 5.93448E-005 
37600 5.90243E-005 
37650 5.87059E-005 
37700 5.83897E-005 
37750 5.80757E-005 
37800 5.77637E-005 
37850 5.74539E-005 
37900 5.71461E-005 
37950 5.68404E-005 
38000 5.65368E-005 
38050 5.62352E-005 
38100 5.59357E-005 
38150 5.56381E-005 
38200 5.53426E-005 
38250 5.5049E-005 
38300 5.47573E-005 
38350 5.44676E-005 
38400 5.41798E-005 
38450 5.38939E-005 
38500 5.36099E-005 
38550 5.33278E-005 
38600 5.30475E-005 
38650 5.27691E-005 
38700 5.24925E-005 
38750 5.22177E-005 
38800 5.19447E-005 
38850 5.16735E-005 
38900 5.1404E-005 
38950 5.11364E-005 
39000 5.08704E-005 
39050 5.06062E-005 
39100 5.03437E-005 
39150 5.0083E-005 
39200 4.98239E-005 
39250 4.95664E-005 
39300 4.93107E-005 
39350 4.90566E-005 
39400 4.88041E-005 
39450 4.85533E-005 
39500 4.83041E-005 
39550 4.80565E-005 
39600 4.78104E-005 
39650 4.7566E-005 
39700 4.73231E-005 
39750 4.70817E-005 
39800 4.68419E-005 
39850 4.66036E-005 
39900 4.63669E-005 
39950 4.61316E-005 
40000 4.58979E-005 
40050 4.56657E-005 
40100 4.54349E-005 
40150 4.52056E-005 
40200 4.49778E-005 
40250 4.47514E-005 
40300 4.45264E-005 
40350 4.43028E-005 
40400 4.40807E-005 
40450 4.38599E-005 
40500 4.36405E-005 
40550 4.34225E-005 
40600 4.32059E-005 
40650 4.29906E-005 
40700 4.27767E-005 
40750 4.2564E-005 
40800 4.23527E-005 
40850 4.21428E-005 
40900 4.19341E-005 
40950 4.17267E-005 
41000 4.15206E-005 
41050 4.13158E-005 
41100 4.11122E-005 
41150 4.09099E-005 
41200 4.07088E-005 
41250 4.0509E-005 
41300 4.03104E-005 
41350 4.0113E-005 
41400 3.99168E-005 
41450 3.97218E-005 
41500 3.9528E-005 
41550 3.93354E-005 
41600 3.9144E-005 
41650 3.89537E-005 
41700 3.87646E-005 
41750 3.85767E-005 
41800 3.83899E-005 
41850 3.82042E-005 
41900 3.80196E-005 
41950 3.78361E-005 
42000 3.76537E-005 
42050 3.74724E-005 
42100 3.72922E-005 
42150 3.7113E-005 
42200 3.6935E-005 
42250 3.6758E-005 
42300 3.6582E-005 
42350 3.64072E-005 
42400 3.62335E-005 
42450 3.60607E-005 
42500 3.5889E-005 
42550 3.57184E-005 
42600 3.55487E-005 
42650 3.53801E-005 
42700 3.52124E-005 
42750 3.50458E-005 
42800 3.48801E-005 
42850 3.47154E-005 
42900 3.45517E-005 
42950 3.43889E-005 
43000 3.42271E-005 
43050 3.40663E-005 
43100 3.39065E-005 
43150 3.37476E-005 
43200 3.35896E-005 
43250 3.34326E-005 
43300 3.32765E-005 
43350 3.31213E-005 
43400 3.2967E-005 
43450 3.28136E-005 
43500 3.2661E-005 
43550 3.25094E-005 
43600 3.23587E-005 
43650 3.22088E-005 
43700 3.20598E-005 
43750 3.19117E-005 
43800 3.17644E-005 
43850 3.16179E-005 
43900 3.14723E-005 
43950 3.13275E-005 
44000 3.11836E-005 
44050 3.10405E-005 
44100 3.08982E-005 
44150 3.07567E-005 
44200 3.0616E-005 
44250 3.04761E-005 
44300 3.03371E-005 
44350 3.01988E-005 
44400 3.00613E-005 
44450 2.99246E-005 
44500 2.97887E-005 
44550 2.96536E-005 
44600 2.95192E-005 
44650 2.93855E-005 
44700 2.92527E-005 
44750 2.91206E-005 
44800 2.89892E-005 
44850 2.88585E-005 
44900 2.87287E-005 
44950 2.85995E-005 
45000 2.84711E-005 
45050 2.83433E-005 
45100 2.82163E-005 
45150 2.80901E-005 
45200 2.79645E-005 
45250 2.78396E-005 
45300 2.77154E-005 
45350 2.75919E-005 
45400 2.74691E-005 
45450 2.7347E-005 
45500 2.72256E-005 
45550 2.71048E-005 
45600 2.69847E-005 
45650 2.68653E-005 
45700 2.67465E-005 
45750 2.66284E-005 
45800 2.6511E-005 
45850 2.63942E-005 
45900 2.6278E-005 
45950 2.61625E-005 
46000 2.60476E-005 
46050 2.59333E-005 
46100 2.58197E-005 
46150 2.57067E-005 
46200 2.55943E-005 
46250 2.54826E-005 
46300 2.53714E-005 
46350 2.52609E-005 
46400 2.51509E-005 
46450 2.50416E-005 
46500 2.49328E-005 
46550 2.48247E-005 
46600 2.47172E-005 
46650 2.46102E-005 
46700 2.45038E-005 
46750 2.4398E-005 
46800 2.42928E-005 
46850 2.41881E-005 
46900 2.4084E-005 
46950 2.39805E-005 
47000 2.38775E-005 
47050 2.3775E-005 
47100 2.36731E-005 
47150 2.35717E-005 
47200 2.34709E-005 
47250 2.33706E-005 
47300 2.32709E-005 
47350 2.31716E-005 
47400 2.3073E-005 
47450 2.29748E-005 
47500 2.28771E-005 
47550 2.278E-005 
47600 2.26834E-005 
47650 2.25873E-005 
47700 2.24917E-005 
47750 2.23966E-005 
47800 2.23021E-005 
47850 2.2208E-005 
47900 2.21144E-005 
47950 2.20213E-005 
48000 2.19287E-005 
48050 2.18366E-005 
48100 2.1745E-005 
48150 2.16539E-005 
48200 2.15633E-005 
48250 2.14731E-005 
48300 2.13834E-005 
48350 2.12942E-005 
48400 2.12054E-005 
48450 2.11171E-005 
48500 2.10293E-005 
48550 2.09419E-005 
48600 2.0855E-005 
48650 2.07685E-005 
48700 2.06825E-005 
48750 2.05969E-005 
48800 2.05118E-005 
48850 2.04271E-005 
48900 2.03428E-005 
48950 2.0259E-005 
49000 2.01756E-005 
49050 2.00926E-005 
49100 2.001E-005 
49150 1.99279E-005 
49200 1.98462E-005 
49250 1.97649E-005 
49300 1.9684E-005 
49350 1.96035E-005 
49400 1.95234E-005 
49450 1.94438E-005 
49500 1.93645E-005 
49550 1.92857E-005 
49600 1.92073E-005 
49650 1.91293E-005 
49700 1.90517E-005 
49750 1.89744E-005 
49800 1.88976E-005 
49850 1.88212E-005 
49900 1.87451E-005 
49950 1.86694E-005 
50000 1.85941E-005 
50050 1.85192E-005 
50100 1.84447E-005 
50150 1.83705E-005 
50200 1.82968E-005 
50250 1.82233E-005 
50300 1.81503E-005 
50350 1.80776E-005 
50400 1.80053E-005 
50450 1.79333E-005 
50500 1.78617E-005 
50550 1.77905E-005 
50600 1.77196E-005 
50650 1.76491E-005 
50700 1.75789E-005 
50750 1.75091E-005 
50800 1.74396E-005 
50850 1.73705E-005 
50900 1.73017E-005 
50950 1.72332E-005 
51000 1.71651E-005 
51050 1.70973E-005 
51100 1.70299E-005 
51150 1.69628E-005 
51200 1.68961E-005 
51250 1.68296E-005 
51300 1.67635E-005 
51350 1.66977E-005 
51400 1.66323E-005 
51450 1.65672E-005 
51500 1.65023E-005 
51550 1.64378E-005 
51600 1.63736E-005 
51650 1.63097E-005 
51700 1.62461E-005 
51750 1.61829E-005 
51800 1.61199E-005 
51850 1.60572E-005 
51900 1.59949E-005 
51950 1.59328E-005 
52000 1.58711E-005 
52050 1.58096E-005 
52100 1.57485E-005 
52150 1.56876E-005 
52200 1.56271E-005 
52250 1.55668E-005 
52300 1.55068E-005 
52350 1.54471E-005 
52400 1.53877E-005 
52450 1.53286E-005 
52500 1.52698E-005 
52550 1.52112E-005 
52600 1.51529E-005 
52650 1.50949E-005 
52700 1.50372E-005 
52750 1.49798E-005 
52800 1.49226E-005 
52850 1.48657E-005 
52900 1.48091E-005 
52950 1.47528E-005 
53000 1.46967E-005 
53050 1.46409E-005 
53100 1.45853E-005 
53150 1.453E-005 
53200 1.4475E-005 
53250 1.44202E-005 
53300 1.43657E-005 
53350 1.43115E-005 
53400 1.42575E-005 
53450 1.42037E-005 
53500 1.41503E-005 
53550 1.40971E-005 
53600 1.40441E-005 
53650 1.39914E-005 
53700 1.39389E-005 
53750 1.38867E-005 
53800 1.38347E-005 
53850 1.3783E-005 
53900 1.37315E-005 
53950 1.36802E-005 
54000 1.36292E-005 
54050 1.35784E-005 
54100 1.35279E-005 
54150 1.34776E-005 
54200 1.34275E-005 
54250 1.33776E-005 
54300 1.3328E-005 
54350 1.32786E-005 
54400 1.32294E-005 
54450 1.31805E-005 
54500 1.31318E-005 
54550 1.30833E-005 
54600 1.3035E-005 
54650 1.2987E-005 
54700 1.29392E-005 
54750 1.28917E-005 
54800 1.28444E-005 
54850 1.27972E-005 
54900 1.27502E-005 
54950 1.27035E-005 
55000 1.2657E-005 
55050 1.26107E-005 
55100 1.25646E-005 
55150 1.25188E-005 
55200 1.24731E-005 
55250 1.24276E-005 
55300 1.23823E-005 
55350 1.23373E-005 
55400 1.22926E-005 
55450 1.2248E-005 
55500 1.22036E-005 
55550 1.21593E-005 
55600 1.21153E-005 
55650 1.20715E-005 
55700 1.20278E-005 
55750 1.19844E-005 
55800 1.19411E-005 
55850 1.18981E-005 
55900 1.18552E-005 
55950 1.18126E-005 
56000 1.17701E-005 
56050 1.17278E-005 
56100 1.16857E-005 
56150 1.16438E-005 
56200 1.16021E-005 
56250 1.15606E-005 
56300 1.15193E-005 
56350 1.14781E-005 
56400 1.14372E-005 
56450 1.13964E-005 
56500 1.13558E-005 
56550 1.13154E-005 
56600 1.12751E-005 
56650 1.12351E-005 
56700 1.11952E-005 
56750 1.11555E-005 
56800 1.1116E-005 
56850 1.10766E-005 
56900 1.10374E-005 
56950 1.09984E-005 
57000 1.09596E-005 
57050 1.09209E-005 
57100 1.08825E-005 
57150 1.08441E-005 
57200 1.0806E-005 
57250 1.0768E-005 
57300 1.07302E-005 
57350 1.06925E-005 
57400 1.06551E-005 
57450 1.06177E-005 
57500 1.05806E-005 
57550 1.05436E-005 
57600 1.05068E-005 
57650 1.04701E-005 
57700 1.04336E-005 
57750 1.03972E-005 
57800 1.0361E-005 
57850 1.0325E-005 
57900 1.02891E-005 
57950 1.02534E-005 
58000 1.02178E-005 
58050 1.01824E-005 
58100 1.01472E-005 
58150 1.01121E-005 
58200 1.00771E-005 
58250 1.00423E-005 
58300 1.00076E-005 
58350 9.97314E-006 
58400 9.93879E-006 
58450 9.90458E-006 
58500 9.87052E-006 
58550 9.83661E-006 
58600 9.80284E-006 
58650 9.76922E-006 
58700 9.73574E-006 
58750 9.70241E-006 
58800 9.66921E-006 
58850 9.63616E-006 
58900 9.60326E-006 
58950 9.57049E-006 
59000 9.53786E-006 
59050 9.50537E-006 
59100 9.47302E-006 
59150 9.44081E-006 
59200 9.40873E-006 
59250 9.37679E-006 
59300 9.34499E-006 
59350 9.31332E-006 
59400 9.28178E-006 
59450 9.25038E-006 
59500 9.21911E-006 
59550 9.18797E-006 
59600 9.15697E-006 
59650 9.12609E-006 
59700 9.09535E-006 
59750 9.06474E-006 
59800 9.03425E-006 
59850 9.00388E-006 
59900 8.97364E-006 
59950 8.94353E-006 
60000 8.91355E-006 
60050 8.8837E-006 
60100 8.85397E-006 
60150 8.82437E-006 
60200 8.79489E-006 
60250 8.76553E-006 
60300 8.7363E-006 
60350 8.70719E-006 
60400 8.6782E-006 
60450 8.64933E-006 
60500 8.62058E-006 
60550 8.59196E-006 
60600 8.56345E-006 
60650 8.53505E-006 
60700 8.50678E-006 
60750 8.47862E-006 
60800 8.45058E-006 
60850 8.42266E-006 
60900 8.39486E-006 
60950 8.36717E-006 
61000 8.33959E-006 
61050 8.31213E-006 
61100 8.28478E-006 
61150 8.25755E-006 
61200 8.23042E-006 
61250 8.20341E-006 
61300 8.17651E-006 
61350 8.14971E-006 
61400 8.12303E-006 
61450 8.09646E-006 
61500 8.06999E-006 
61550 8.04363E-006 
61600 8.01738E-006 
61650 7.99123E-006 
61700 7.96519E-006 
61750 7.93926E-006 
61800 7.91343E-006 
61850 7.88771E-006 
61900 7.86209E-006 
61950 7.83657E-006 
62000 7.81116E-006 
62050 7.78586E-006 
62100 7.76065E-006 
62150 7.73555E-006 
62200 7.71054E-006 
62250 7.68564E-006 
62300 7.66084E-006 
62350 7.63615E-006 
62400 7.61155E-006 
62450 7.58705E-006 
62500 7.56265E-006 
62550 7.53835E-006 
62600 7.51415E-006 
62650 7.49004E-006 
62700 7.46604E-006 
62750 7.44212E-006 
62800 7.4183E-006 
62850 7.39459E-006 
62900 7.37096E-006 
62950 7.34742E-006 
63000 7.32398E-006 
63050 7.30063E-006 
63100 7.27738E-006 
63150 7.25421E-006 
63200 7.23114E-006 
63250 7.20815E-006 
63300 7.18526E-006 
63350 7.16247E-006 
63400 7.13975E-006 
63450 7.11714E-006 
63500 7.09461E-006 
63550 7.07216E-006 
63600 7.04981E-006 
63650 7.02755E-006 
63700 7.00537E-006 
63750 6.98329E-006 
63800 6.96128E-006 
63850 6.93937E-006 
63900 6.91754E-006 
63950 6.8958E-006 
64000 6.87414E-006 
64050 6.85257E-006 
64100 6.8311E-006 
64150 6.8097E-006 
64200 6.78838E-006 
64250 6.76715E-006 
64300 6.746E-006 
64350 6.72494E-006 
64400 6.70395E-006 
64450 6.68305E-006 
64500 6.66223E-006 
64550 6.64149E-006 
64600 6.62084E-006 
64650 6.60026E-006 
64700 6.57976E-006 
64750 6.55934E-006 
64800 6.539E-006 
64850 6.51874E-006 
64900 6.49856E-006 
64950 6.47845E-006 
65000 6.45843E-006 
65050 6.43848E-006 
65100 6.4186E-006 
65150 6.39881E-006 
65200 6.37909E-006 
65250 6.35944E-006 
65300 6.33988E-006 
65350 6.32038E-006 
65400 6.30097E-006 
65450 6.28162E-006 
65500 6.26235E-006 
65550 6.24315E-006 
65600 6.22403E-006 
65650 6.20498E-006 
65700 6.18601E-006 
65750 6.1671E-006 
65800 6.14827E-006 
65850 6.12951E-006 
65900 6.11082E-006 
65950 6.09221E-006 
66000 6.07366E-006 
66050 6.05519E-006 
66100 6.03678E-006 
66150 6.01845E-006 
66200 6.00018E-006 
66250 5.98199E-006 
66300 5.96386E-006 
66350 5.9458E-006 
66400 5.92781E-006 
66450 5.90989E-006 
66500 5.89204E-006 
66550 5.87425E-006 
66600 5.85653E-006 
66650 5.83888E-006 
66700 5.82129E-006 
66750 5.80377E-006 
66800 5.78632E-006 
66850 5.76893E-006 
66900 5.7516E-006 
66950 5.73434E-006 
67000 5.71715E-006 
67050 5.70002E-006 
67100 5.68295E-006 
67150 5.66595E-006 
67200 5.64901E-006 
67250 5.63214E-006 
67300 5.61533E-006 
67350 5.59858E-006 
67400 5.58189E-006 
67450 5.56527E-006 
67500 5.54872E-006 
67550 5.53222E-006 
67600 5.51579E-006 
67650 5.49942E-006 
67700 5.48311E-006 
67750 5.46685E-006 
67800 5.45066E-006 
67850 5.43453E-006 
67900 5.41846E-006 
67950 5.40245E-006 
68000 5.3865E-006 
68050 5.3706E-006 
68100 5.35476E-006 
68150 5.33898E-006 
68200 5.32325E-006 
68250 5.30759E-006 
68300 5.29198E-006 
68350 5.27643E-006 
68400 5.26094E-006 
68450 5.2455E-006 
68500 5.23012E-006 
68550 5.2148E-006 
68600 5.19953E-006 
68650 5.18432E-006 
68700 5.16916E-006 
68750 5.15406E-006 
68800 5.13902E-006 
68850 5.12403E-006 
68900 5.10909E-006 
68950 5.09421E-006 
69000 5.07938E-006 
69050 5.06461E-006 
69100 5.04989E-006 
69150 5.03522E-006 
69200 5.02061E-006 
69250 5.00605E-006 
69300 4.99154E-006 
69350 4.97709E-006 
69400 4.96268E-006 
69450 4.94833E-006 
69500 4.93404E-006 
69550 4.91979E-006 
69600 4.90559E-006 
69650 4.89145E-006 
69700 4.87736E-006 
69750 4.86331E-006 
69800 4.84932E-006 
69850 4.83538E-006 
69900 4.82149E-006 
69950 4.80765E-006 
70000 4.79386E-006 
70050 4.78012E-006 
70100 4.76643E-006 
70150 4.75279E-006 
70200 4.73919E-006 
70250 4.72565E-006 
70300 4.71216E-006 
70350 4.69871E-006 
70400 4.68531E-006 
70450 4.67196E-006 
70500 4.65865E-006 
70550 4.6454E-006 
70600 4.63219E-006 
70650 4.61903E-006 
70700 4.60591E-006 
70750 4.59284E-006 
70800 4.57982E-006 
70850 4.56684E-006 
70900 4.55391E-006 
70950 4.54103E-006 
71000 4.52819E-006 
71050 4.5154E-006 
71100 4.50265E-006 
71150 4.48994E-006 
71200 4.47728E-006 
71250 4.46467E-006 
71300 4.4521E-006 
71350 4.43958E-006 
71400 4.42709E-006 
71450 4.41466E-006 
71500 4.40226E-006 
71550 4.38991E-006 
71600 4.3776E-006 
71650 4.36534E-006 
71700 4.35312E-006 
71750 4.34094E-006 
71800 4.32881E-006 
71850 4.31671E-006 
71900 4.30466E-006 
71950 4.29265E-006 
72000 4.28069E-006 
72050 4.26876E-006 
72100 4.25687E-006 
72150 4.24503E-006 
72200 4.23323E-006 
72250 4.22146E-006 
72300 4.20974E-006 
72350 4.19806E-006 
72400 4.18642E-006 
72450 4.17482E-006 
72500 4.16326E-006 
72550 4.15174E-006 
72600 4.14026E-006 
72650 4.12882E-006 
72700 4.11742E-006 
72750 4.10606E-006 
72800 4.09474E-006 
72850 4.08346E-006 
72900 4.07221E-006 
72950 4.06101E-006 
73000 4.04984E-006 
73050 4.03871E-006 
73100 4.02762E-006 
73150 4.01657E-006 
73200 4.00555E-006 
73250 3.99457E-006 
73300 3.98363E-006 
73350 3.97273E-006 
73400 3.96187E-006 
73450 3.95104E-006 
73500 3.94025E-006 
73550 3.9295E-006 
73600 3.91878E-006 
73650 3.90811E-006 
73700 3.89747E-006 
73750 3.88686E-006 
73800 3.87629E-006 
73850 3.86576E-006 
73900 3.85526E-006 
73950 3.8448E-006 
74000 3.83438E-006 
74050 3.82399E-006 
74100 3.81363E-006 
74150 3.80331E-006 
74200 3.79303E-006 
74250 3.78277E-006 
74300 3.77256E-006 
74350 3.76237E-006 
74400 3.75222E-006 
74450 3.7421E-006 
74500 3.73202E-006 
74550 3.72198E-006 
74600 3.71196E-006 
74650 3.70198E-006 
74700 3.69203E-006 
74750 3.68212E-006 
74800 3.67224E-006 
74850 3.66239E-006 
74900 3.65258E-006 
74950 3.6428E-006 
75000 3.63305E-006 
75050 3.62334E-006 
75100 3.61366E-006 
75150 3.60401E-006 
75200 3.59439E-006 
75250 3.58481E-006 
75300 3.57525E-006 
75350 3.56573E-006 
75400 3.55624E-006 
75450 3.54679E-006 
75500 3.53736E-006 
75550 3.52796E-006 
75600 3.5186E-006 
75650 3.50927E-006 
75700 3.49997E-006 
75750 3.49069E-006 
75800 3.48145E-006 
75850 3.47224E-006 
75900 3.46306E-006 
75950 3.45392E-006 
76000 3.4448E-006 
76050 3.43571E-006 
76100 3.42665E-006 
76150 3.41762E-006 
76200 3.40862E-006 
76250 3.39965E-006 
76300 3.39071E-006 
76350 3.3818E-006 
76400 3.37292E-006 
76450 3.36407E-006 
76500 3.35525E-006 
76550 3.34645E-006 
76600 3.33769E-006 
76650 3.32895E-006 
76700 3.32024E-006 
76750 3.31156E-006 
76800 3.30291E-006 
76850 3.29429E-006 
76900 3.28569E-006 
76950 3.27713E-006 
77000 3.26859E-006 
77050 3.26008E-006 
77100 3.2516E-006 
77150 3.24314E-006 
77200 3.23471E-006 
77250 3.22631E-006 
77300 3.21794E-006 
77350 3.20959E-006 
77400 3.20127E-006 
77450 3.19298E-006 
77500 3.18471E-006 
77550 3.17647E-006 
77600 3.16826E-006 
77650 3.16007E-006 
77700 3.15191E-006 
77750 3.14378E-006 
77800 3.13567E-006 
77850 3.12759E-006 
77900 3.11954E-006 
77950 3.11151E-006 
78000 3.1035E-006 
78050 3.09553E-006 
78100 3.08757E-006 
78150 3.07965E-006 
78200 3.07175E-006 
78250 3.06387E-006 
78300 3.05602E-006 
78350 3.0482E-006 
78400 3.0404E-006 
78450 3.03262E-006 
78500 3.02487E-006 
78550 3.01714E-006 
78600 3.00944E-006 
78650 3.00177E-006 
78700 2.99411E-006 
78750 2.98648E-006 
78800 2.97888E-006 
78850 2.9713E-006 
78900 2.96374E-006 
78950 2.95621E-006 
79000 2.9487E-006 
79050 2.94121E-006 
79100 2.93375E-006 
79150 2.92632E-006 
79200 2.9189E-006 
79250 2.91151E-006 
79300 2.90414E-006 
79350 2.8968E-006 
79400 2.88949E-006 
79450 2.88219E-006 
79500 2.87492E-006 
79550 2.86767E-006 
79600 2.86045E-006 
79650 2.85324E-006 
79700 2.84606E-006 
79750 2.8389E-006 
79800 2.83177E-006 
79850 2.82466E-006 
79900 2.81757E-006 
79950 2.8105E-006 
80000 2.80345E-006 
80050 2.79643E-006 
80100 2.78943E-006 
80150 2.78245E-006 
80200 2.77549E-006 
80250 2.76855E-006 
80300 2.76164E-006 
80350 2.75474E-006 
80400 2.74787E-006 
80450 2.74102E-006 
80500 2.73419E-006 
80550 2.72739E-006 
80600 2.7206E-006 
80650 2.71383E-006 
80700 2.70709E-006 
80750 2.70037E-006 
80800 2.69366E-006 
80850 2.68698E-006 
80900 2.68032E-006 
80950 2.67368E-006 
81000 2.66706E-006 
81050 2.66046E-006 
81100 2.65388E-006 
81150 2.64732E-006 
81200 2.64079E-006 
81250 2.63427E-006 
81300 2.62777E-006 
81350 2.62129E-006 
81400 2.61483E-006 
81450 2.6084E-006 
81500 2.60198E-006 
81550 2.59558E-006 
81600 2.5892E-006 
81650 2.58284E-006 
81700 2.5765E-006 
81750 2.57018E-006 
81800 2.56388E-006 
81850 2.5576E-006 
81900 2.55134E-006 
81950 2.54509E-006 
82000 2.53887E-006 
82050 2.53266E-006 
82100 2.52648E-006 
82150 2.52031E-006 
82200 2.51416E-006 
82250 2.50803E-006 
82300 2.50192E-006 
82350 2.49583E-006 
82400 2.48976E-006 
82450 2.4837E-006 
82500 2.47766E-006 
82550 2.47165E-006 
82600 2.46564E-006 
82650 2.45966E-006 
82700 2.4537E-006 
82750 2.44775E-006 
82800 2.44182E-006 
82850 2.43591E-006 
82900 2.43002E-006 
82950 2.42415E-006 
83000 2.41829E-006 
83050 2.41245E-006 
83100 2.40663E-006 
83150 2.40082E-006 
83200 2.39504E-006 
83250 2.38927E-006 
83300 2.38352E-006 
83350 2.37778E-006 
83400 2.37206E-006 
83450 2.36636E-006 
83500 2.36068E-006 
83550 2.35501E-006 
83600 2.34936E-006 
83650 2.34373E-006 
83700 2.33811E-006 
83750 2.33251E-006 
83800 2.32693E-006 
83850 2.32137E-006 
83900 2.31582E-006 
83950 2.31028E-006 
84000 2.30477E-006 
84050 2.29927E-006 
84100 2.29379E-006 
84150 2.28833E-006 
84200 2.28288E-006 
84250 2.27744E-006 
84300 2.27203E-006 
84350 2.26663E-006 
84400 2.26124E-006 
84450 2.25587E-006 
84500 2.25052E-006 
84550 2.24519E-006 
84600 2.23987E-006 
84650 2.23456E-006 
84700 2.22927E-006 
84750 2.224E-006 
84800 2.21874E-006 
84850 2.2135E-006 
84900 2.20827E-006 
84950 2.20306E-006 
85000 2.19786E-006 
85050 2.19268E-006 
85100 2.18751E-006 
85150 2.18236E-006 
85200 2.17723E-006 
85250 2.1721E-006 
85300 2.167E-006 
85350 2.16191E-006 
85400 2.15683E-006 
85450 2.15177E-006 
85500 2.14672E-006 
85550 2.14169E-006 
85600 2.13667E-006 
85650 2.13167E-006 
85700 2.12668E-006 
85750 2.12171E-006 
85800 2.11675E-006 
85850 2.11181E-006 
85900 2.10687E-006 
85950 2.10196E-006 
86000 2.09706E-006 
86050 2.09217E-006 
86100 2.0873E-006 
86150 2.08244E-006 
86200 2.0776E-006 
86250 2.07277E-006 
86300 2.06795E-006 
86350 2.06315E-006 
86400 2.05836E-006 
86450 2.05358E-006 
86500 2.04882E-006 
86550 2.04408E-006 
86600 2.03935E-006 
86650 2.03463E-006 
86700 2.02992E-006 
86750 2.02523E-006 
86800 2.02055E-006 
86850 2.01589E-006 
86900 2.01124E-006 
86950 2.0066E-006 
87000 2.00198E-006 
87050 1.99737E-006 
87100 1.99277E-006 
87150 1.98819E-006 
87200 1.98362E-006 
87250 1.97906E-006 
87300 1.97451E-006 
87350 1.96998E-006 
87400 1.96546E-006 
87450 1.96096E-006 
87500 1.95646E-006 
87550 1.95198E-006 
87600 1.94752E-006 
87650 1.94306E-006 
87700 1.93862E-006 
87750 1.93419E-006 
87800 1.92978E-006 
87850 1.92537E-006 
87900 1.92098E-006 
87950 1.9166E-006 
88000 1.91224E-006 
88050 1.90788E-006 
88100 1.90354E-006 
88150 1.89921E-006 
88200 1.89489E-006 
88250 1.89059E-006 
88300 1.88629E-006 
88350 1.88201E-006 
88400 1.87774E-006 
88450 1.87349E-006 
88500 1.86924E-006 
88550 1.86501E-006 
88600 1.86079E-006 
88650 1.85658E-006 
88700 1.85238E-006 
88750 1.8482E-006 
88800 1.84403E-006 
88850 1.83987E-006 
88900 1.83572E-006 
88950 1.83158E-006 
89000 1.82745E-006 
89050 1.82334E-006 
89100 1.81924E-006 
89150 1.81515E-006 
89200 1.81107E-006 
89250 1.807E-006 
89300 1.80295E-006 
89350 1.7989E-006 
89400 1.79487E-006 
89450 1.79085E-006 
89500 1.78684E-006 
89550 1.78284E-006 
89600 1.77885E-006 
89650 1.77487E-006 
89700 1.77091E-006 
89750 1.76695E-006 
89800 1.76301E-006 
89850 1.75907E-006 
89900 1.75515E-006 
89950 1.75124E-006 
90000 1.74734E-006 
90050 1.74345E-006 
90100 1.73957E-006 
90150 1.73571E-006 
90200 1.73185E-006 
90250 1.728E-006 
90300 1.72417E-006 
90350 1.72034E-006 
90400 1.71653E-006 
90450 1.71272E-006 
90500 1.70893E-006 
90550 1.70515E-006 
90600 1.70137E-006 
90650 1.69761E-006 
90700 1.69386E-006 
90750 1.69012E-006 
90800 1.68639E-006 
90850 1.68267E-006 
90900 1.67896E-006 
90950 1.67526E-006 
91000 1.67157E-006 
91050 1.66789E-006 
91100 1.66422E-006 
91150 1.66056E-006 
91200 1.65691E-006 
91250 1.65327E-006 
91300 1.64964E-006 
91350 1.64602E-006 
91400 1.64241E-006 
91450 1.63881E-006 
91500 1.63522E-006 
91550 1.63164E-006 
91600 1.62807E-006 
91650 1.62451E-006 
91700 1.62096E-006 
91750 1.61742E-006 
91800 1.61389E-006 
91850 1.61036E-006 
91900 1.60685E-006 
91950 1.60335E-006 
92000 1.59986E-006 
92050 1.59637E-006 
92100 1.5929E-006 
92150 1.58943E-006 
92200 1.58598E-006 
92250 1.58253E-006 
92300 1.5791E-006 
92350 1.57567E-006 
92400 1.57225E-006 
92450 1.56884E-006 
92500 1.56544E-006 
92550 1.56205E-006 
92600 1.55867E-006 
92650 1.5553E-006 
92700 1.55194E-006 
92750 1.54858E-006 
92800 1.54524E-006 
92850 1.5419E-006 
92900 1.53858E-006 
92950 1.53526E-006 
93000 1.53195E-006 
93050 1.52865E-006 
93100 1.52536E-006 
93150 1.52208E-006 
93200 1.51881E-006 
93250 1.51554E-006 
93300 1.51229E-006 
93350 1.50904E-006 
93400 1.5058E-006 
93450 1.50257E-006 
93500 1.49935E-006 
93550 1.49614E-006 
93600 1.49294E-006 
93650 1.48974E-006 
93700 1.48656E-006 
93750 1.48338E-006 
93800 1.48021E-006 
93850 1.47705E-006 
93900 1.4739E-006 
93950 1.47075E-006 
94000 1.46762E-006 
94050 1.46449E-006 
94100 1.46137E-006 
94150 1.45826E-006 
94200 1.45516E-006 
94250 1.45207E-006 
94300 1.44898E-006 
94350 1.4459E-006 
94400 1.44283E-006 
94450 1.43977E-006 
94500 1.43672E-006 
94550 1.43368E-006 
94600 1.43064E-006 
94650 1.42761E-006 
94700 1.42459E-006 
94750 1.42158E-006 
94800 1.41857E-006 
94850 1.41557E-006 
94900 1.41258E-006 
94950 1.4096E-006 
95000 1.40663E-006 
95050 1.40366E-006 
95100 1.40071E-006 
95150 1.39776E-006 
95200 1.39481E-006 
95250 1.39188E-006 
95300 1.38895E-006 
95350 1.38603E-006 
95400 1.38312E-006 
95450 1.38022E-006 
95500 1.37732E-006 
95550 1.37443E-006 
95600 1.37155E-006 
95650 1.36868E-006 
95700 1.36581E-006 
95750 1.36295E-006 
95800 1.3601E-006 
95850 1.35726E-006 
95900 1.35442E-006 
95950 1.35159E-006 
96000 1.34877E-006 
96050 1.34596E-006 
96100 1.34315E-006 
96150 1.34035E-006 
96200 1.33756E-006 
96250 1.33477E-006 
96300 1.332E-006 
96350 1.32923E-006 
96400 1.32646E-006 
96450 1.32371E-006 
96500 1.32096E-006 
96550 1.31822E-006 
96600 1.31548E-006 
96650 1.31276E-006 
96700 1.31004E-006 
96750 1.30732E-006 
96800 1.30462E-006 
96850 1.30192E-006 
96900 1.29923E-006 
96950 1.29654E-006 
97000 1.29386E-006 
97050 1.29119E-006 
97100 1.28853E-006 
97150 1.28587E-006 
97200 1.28322E-006 
97250 1.28058E-006 
97300 1.27794E-006 
97350 1.27531E-006 
97400 1.27269E-006 
97450 1.27007E-006 
97500 1.26746E-006 
97550 1.26486E-006 
97600 1.26226E-006 
97650 1.25967E-006 
97700 1.25709E-006 
97750 1.25451E-006 
97800 1.25194E-006 
97850 1.24938E-006 
97900 1.24682E-006 
97950 1.24427E-006 
98000 1.24173E-006 
98050 1.23919E-006 
98100 1.23666E-006 
98150 1.23414E-006 
98200 1.23162E-006 
98250 1.22911E-006 
98300 1.2266E-006 
98350 1.2241E-006 
98400 1.22161E-006 
98450 1.21912E-006 
98500 1.21664E-006 
98550 1.21417E-006 
98600 1.2117E-006 
98650 1.20924E-006 
98700 1.20679E-006 
98750 1.20434E-006 
98800 1.2019E-006 
98850 1.19946E-006 
98900 1.19703E-006 
98950 1.19461E-006 
99000 1.19219E-006 
99050 1.18978E-006 
99100 1.18737E-006 
99150 1.18497E-006 
99200 1.18258E-006 
99250 1.18019E-006 
99300 1.17781E-006 
99350 1.17543E-006 
99400 1.17306E-006 
99450 1.1707E-006 
99500 1.16834E-006 
99550 1.16599E-006 
99600 1.16364E-006 
99650 1.1613E-006 
99700 1.15897E-006 
99750 1.15664E-006 
99800 1.15432E-006 
99850 1.15201E-006 
99900 1.1497E-006 
99950 1.14739E-006 
100000 1.1451E-006 
