#F U:\Beamline I20\I20-2_EDE\Wigglers\xop\83mm-small-wiggler\EDE wiggler\1p1T-300mA-0p12x1p1mrad.dat
#C I20EDE 1.1T 300mA 0.12x1.1mrad
#S 1 File written by xplot on Tue Dec 07 18:22:42 2010
#N 2
#L    Energy [eV]  Flux [ph/s/0.1%bw]
50 8.10972E+012 
100 1.28604E+013 
150 1.68237E+013 
200 2.03373E+013 
250 2.35414E+013 
300 2.65115E+013 
350 2.92941E+013 
400 3.19207E+013 
450 3.44135E+013 
500 3.67892E+013 
550 3.90609E+013 
600 4.12388E+013 
650 4.33312E+013 
700 4.53452E+013 
750 4.72865E+013 
800 4.916E+013 
850 5.09702E+013 
900 5.27207E+013 
950 5.44148E+013 
1000 5.60555E+013 
1050 5.76454E+013 
1100 5.91868E+013 
1150 6.06818E+013 
1200 6.21325E+013 
1250 6.35406E+013 
1300 6.49076E+013 
1350 6.62352E+013 
1400 6.75247E+013 
1450 6.87774E+013 
1500 6.99945E+013 
1550 7.11772E+013 
1600 7.23266E+013 
1650 7.34435E+013 
1700 7.4529E+013 
1750 7.5584E+013 
1800 7.66093E+013 
1850 7.76057E+013 
1900 7.8574E+013 
1950 7.95149E+013 
2000 8.04291E+013 
2050 8.13173E+013 
2100 8.218E+013 
2150 8.3018E+013 
2200 8.38318E+013 
2250 8.46219E+013 
2300 8.5389E+013 
2350 8.61334E+013 
2400 8.68558E+013 
2450 8.75566E+013 
2500 8.82364E+013 
2550 8.88954E+013 
2600 8.95342E+013 
2650 9.01533E+013 
2700 9.07529E+013 
2750 9.13336E+013 
2800 9.18957E+013 
2850 9.24396E+013 
2900 9.29656E+013 
2950 9.34742E+013 
3000 9.39656E+013 
3050 9.44402E+013 
3100 9.48984E+013 
3150 9.53404E+013 
3200 9.57666E+013 
3250 9.61772E+013 
3300 9.65727E+013 
3350 9.69531E+013 
3400 9.7319E+013 
3450 9.76705E+013 
3500 9.80078E+013 
3550 9.83313E+013 
3600 9.86413E+013 
3650 9.8938E+013 
3700 9.92215E+013 
3750 9.94923E+013 
3800 9.97504E+013 
3850 9.99962E+013 
3900 1.0023E+014 
3950 1.00452E+014 
4000 1.00662E+014 
4050 1.0086E+014 
4100 1.01048E+014 
4150 1.01224E+014 
4200 1.0139E+014 
4250 1.01545E+014 
4300 1.01689E+014 
4350 1.01823E+014 
4400 1.01947E+014 
4450 1.02061E+014 
4500 1.02166E+014 
4550 1.02261E+014 
4600 1.02346E+014 
4650 1.02423E+014 
4700 1.0249E+014 
4750 1.02549E+014 
4800 1.02599E+014 
4850 1.0264E+014 
4900 1.02673E+014 
4950 1.02698E+014 
5000 1.02715E+014 
5050 1.02724E+014 
5100 1.02725E+014 
5150 1.02719E+014 
5200 1.02705E+014 
5250 1.02683E+014 
5300 1.02655E+014 
5350 1.0262E+014 
5400 1.02577E+014 
5450 1.02528E+014 
5500 1.02472E+014 
5550 1.0241E+014 
5600 1.02341E+014 
5650 1.02266E+014 
5700 1.02185E+014 
5750 1.02097E+014 
5800 1.02004E+014 
5850 1.01905E+014 
5900 1.018E+014 
5950 1.0169E+014 
6000 1.01574E+014 
6050 1.01453E+014 
6100 1.01326E+014 
6150 1.01195E+014 
6200 1.01058E+014 
6250 1.00916E+014 
6300 1.0077E+014 
6350 1.00619E+014 
6400 1.00463E+014 
6450 1.00302E+014 
6500 1.00137E+014 
6550 9.99679E+013 
6600 9.97943E+013 
6650 9.96164E+013 
6700 9.94345E+013 
6750 9.92485E+013 
6800 9.90586E+013 
6850 9.88648E+013 
6900 9.86673E+013 
6950 9.8466E+013 
7000 9.82612E+013 
7050 9.80528E+013 
7100 9.78409E+013 
7150 9.76257E+013 
7200 9.74072E+013 
7250 9.71854E+013 
7300 9.69605E+013 
7350 9.67325E+013 
7400 9.65015E+013 
7450 9.62676E+013 
7500 9.60307E+013 
7550 9.57911E+013 
7600 9.55487E+013 
7650 9.53037E+013 
7700 9.5056E+013 
7750 9.48058E+013 
7800 9.45531E+013 
7850 9.4298E+013 
7900 9.40405E+013 
7950 9.37808E+013 
8000 9.35187E+013 
8050 9.32545E+013 
8100 9.29882E+013 
8150 9.27198E+013 
8200 9.24494E+013 
8250 9.21771E+013 
8300 9.19028E+013 
8350 9.16267E+013 
8400 9.13487E+013 
8450 9.1069E+013 
8500 9.07877E+013 
8550 9.05046E+013 
8600 9.022E+013 
8650 8.99338E+013 
8700 8.96461E+013 
8750 8.9357E+013 
8800 8.90664E+013 
8850 8.87745E+013 
8900 8.84813E+013 
8950 8.81868E+013 
9000 8.7891E+013 
9050 8.7594E+013 
9100 8.72959E+013 
9150 8.69968E+013 
9200 8.66965E+013 
9250 8.63952E+013 
9300 8.60929E+013 
9350 8.57896E+013 
9400 8.54855E+013 
9450 8.51804E+013 
9500 8.48746E+013 
9550 8.45679E+013 
9600 8.42604E+013 
9650 8.39522E+013 
9700 8.36434E+013 
9750 8.33338E+013 
9800 8.30237E+013 
9850 8.27129E+013 
9900 8.24016E+013 
9950 8.20897E+013 
10000 8.17774E+013 
10050 8.14645E+013 
10100 8.11513E+013 
10150 8.08376E+013 
10200 8.05235E+013 
10250 8.02091E+013 
10300 7.98944E+013 
10350 7.95794E+013 
10400 7.9264E+013 
10450 7.89485E+013 
10500 7.86328E+013 
10550 7.83168E+013 
10600 7.80007E+013 
10650 7.76845E+013 
10700 7.73681E+013 
10750 7.70516E+013 
10800 7.67351E+013 
10850 7.64186E+013 
10900 7.6102E+013 
10950 7.57854E+013 
11000 7.54689E+013 
11050 7.51524E+013 
11100 7.4836E+013 
11150 7.45196E+013 
11200 7.42034E+013 
11250 7.38873E+013 
11300 7.35714E+013 
11350 7.32556E+013 
11400 7.29401E+013 
11450 7.26247E+013 
11500 7.23096E+013 
11550 7.19947E+013 
11600 7.16801E+013 
11650 7.13657E+013 
11700 7.10517E+013 
11750 7.0738E+013 
11800 7.04246E+013 
11850 7.01116E+013 
11900 6.97989E+013 
11950 6.94866E+013 
12000 6.91748E+013 
12050 6.88633E+013 
12100 6.85523E+013 
12150 6.82417E+013 
12200 6.79315E+013 
12250 6.76219E+013 
12300 6.73127E+013 
12350 6.7004E+013 
12400 6.66958E+013 
12450 6.63882E+013 
12500 6.60811E+013 
12550 6.57745E+013 
12600 6.54685E+013 
12650 6.51631E+013 
12700 6.48583E+013 
12750 6.4554E+013 
12800 6.42504E+013 
12850 6.39474E+013 
12900 6.3645E+013 
12950 6.33433E+013 
13000 6.30422E+013 
13050 6.27418E+013 
13100 6.2442E+013 
13150 6.21429E+013 
13200 6.18446E+013 
13250 6.15469E+013 
13300 6.12499E+013 
13350 6.09537E+013 
13400 6.06581E+013 
13450 6.03633E+013 
13500 6.00693E+013 
13550 5.9776E+013 
13600 5.94835E+013 
13650 5.91917E+013 
13700 5.89007E+013 
13750 5.86105E+013 
13800 5.8321E+013 
13850 5.80324E+013 
13900 5.77446E+013 
13950 5.74575E+013 
14000 5.71713E+013 
14050 5.68859E+013 
14100 5.66014E+013 
14150 5.63177E+013 
14200 5.60348E+013 
14250 5.57527E+013 
14300 5.54716E+013 
14350 5.51912E+013 
14400 5.49117E+013 
14450 5.46332E+013 
14500 5.43554E+013 
14550 5.40785E+013 
14600 5.38026E+013 
14650 5.35275E+013 
14700 5.32533E+013 
14750 5.29799E+013 
14800 5.27075E+013 
14850 5.2436E+013 
14900 5.21654E+013 
14950 5.18957E+013 
15000 5.16269E+013 
15050 5.13591E+013 
15100 5.10921E+013 
15150 5.08261E+013 
15200 5.0561E+013 
15250 5.02968E+013 
15300 5.00335E+013 
15350 4.97712E+013 
15400 4.95098E+013 
15450 4.92494E+013 
15500 4.89899E+013 
15550 4.87313E+013 
15600 4.84737E+013 
15650 4.8217E+013 
15700 4.79613E+013 
15750 4.77066E+013 
15800 4.74527E+013 
15850 4.71999E+013 
15900 4.6948E+013 
15950 4.6697E+013 
16000 4.64471E+013 
16050 4.6198E+013 
16100 4.595E+013 
16150 4.57029E+013 
16200 4.54567E+013 
16250 4.52116E+013 
16300 4.49673E+013 
16350 4.47241E+013 
16400 4.44818E+013 
16450 4.42405E+013 
16500 4.40002E+013 
16550 4.37608E+013 
16600 4.35224E+013 
16650 4.3285E+013 
16700 4.30485E+013 
16750 4.2813E+013 
16800 4.25785E+013 
16850 4.23449E+013 
16900 4.21124E+013 
16950 4.18808E+013 
17000 4.16501E+013 
17050 4.14204E+013 
17100 4.11917E+013 
17150 4.0964E+013 
17200 4.07372E+013 
17250 4.05114E+013 
17300 4.02866E+013 
17350 4.00627E+013 
17400 3.98398E+013 
17450 3.96179E+013 
17500 3.93969E+013 
17550 3.91769E+013 
17600 3.89578E+013 
17650 3.87398E+013 
17700 3.85226E+013 
17750 3.83065E+013 
17800 3.80913E+013 
17850 3.7877E+013 
17900 3.76638E+013 
17950 3.74514E+013 
18000 3.724E+013 
18050 3.70296E+013 
18100 3.68201E+013 
18150 3.66116E+013 
18200 3.6404E+013 
18250 3.61974E+013 
18300 3.59917E+013 
18350 3.5787E+013 
18400 3.55832E+013 
18450 3.53803E+013 
18500 3.51784E+013 
18550 3.49774E+013 
18600 3.47774E+013 
18650 3.45783E+013 
18700 3.43801E+013 
18750 3.41828E+013 
18800 3.39865E+013 
18850 3.37911E+013 
18900 3.35966E+013 
18950 3.34031E+013 
19000 3.32105E+013 
19050 3.30188E+013 
19100 3.2828E+013 
19150 3.26381E+013 
19200 3.24491E+013 
19250 3.22611E+013 
19300 3.20739E+013 
19350 3.18877E+013 
19400 3.17023E+013 
19450 3.15179E+013 
19500 3.13343E+013 
19550 3.11517E+013 
19600 3.09699E+013 
19650 3.07891E+013 
19700 3.06091E+013 
19750 3.043E+013 
19800 3.02518E+013 
19850 3.00745E+013 
19900 2.98981E+013 
19950 2.97225E+013 
20000 2.95478E+013 
20050 2.9374E+013 
20100 2.92011E+013 
20150 2.9029E+013 
20200 2.88578E+013 
20250 2.86874E+013 
20300 2.85179E+013 
20350 2.83493E+013 
20400 2.81815E+013 
20450 2.80146E+013 
20500 2.78485E+013 
20550 2.76832E+013 
20600 2.75188E+013 
20650 2.73553E+013 
20700 2.71926E+013 
20750 2.70307E+013 
20800 2.68696E+013 
20850 2.67094E+013 
20900 2.655E+013 
20950 2.63914E+013 
21000 2.62337E+013 
21050 2.60768E+013 
21100 2.59206E+013 
21150 2.57653E+013 
21200 2.56109E+013 
21250 2.54572E+013 
21300 2.53043E+013 
21350 2.51522E+013 
21400 2.50009E+013 
21450 2.48504E+013 
21500 2.47007E+013 
21550 2.45518E+013 
21600 2.44037E+013 
21650 2.42564E+013 
21700 2.41098E+013 
21750 2.39641E+013 
21800 2.38191E+013 
21850 2.36748E+013 
21900 2.35314E+013 
21950 2.33887E+013 
22000 2.32468E+013 
22050 2.31056E+013 
22100 2.29652E+013 
22150 2.28255E+013 
22200 2.26866E+013 
22250 2.25485E+013 
22300 2.24111E+013 
22350 2.22744E+013 
22400 2.21385E+013 
22450 2.20033E+013 
22500 2.18688E+013 
22550 2.17351E+013 
22600 2.16021E+013 
22650 2.14699E+013 
22700 2.13383E+013 
22750 2.12075E+013 
22800 2.10774E+013 
22850 2.0948E+013 
22900 2.08193E+013 
22950 2.06913E+013 
23000 2.0564E+013 
23050 2.04375E+013 
23100 2.03116E+013 
23150 2.01864E+013 
23200 2.00619E+013 
23250 1.99381E+013 
23300 1.9815E+013 
23350 1.96926E+013 
23400 1.95708E+013 
23450 1.94498E+013 
23500 1.93294E+013 
23550 1.92097E+013 
23600 1.90906E+013 
23650 1.89722E+013 
23700 1.88545E+013 
23750 1.87374E+013 
23800 1.8621E+013 
23850 1.85053E+013 
23900 1.83902E+013 
23950 1.82757E+013 
24000 1.81619E+013 
24050 1.80487E+013 
24100 1.79362E+013 
24150 1.78243E+013 
24200 1.77131E+013 
24250 1.76025E+013 
24300 1.74925E+013 
24350 1.73831E+013 
24400 1.72744E+013 
24450 1.71662E+013 
24500 1.70587E+013 
24550 1.69518E+013 
24600 1.68455E+013 
24650 1.67399E+013 
24700 1.66348E+013 
24750 1.65303E+013 
24800 1.64264E+013 
24850 1.63232E+013 
24900 1.62205E+013 
24950 1.61184E+013 
25000 1.60169E+013 
25050 1.5916E+013 
25100 1.58157E+013 
25150 1.57159E+013 
25200 1.56167E+013 
25250 1.55181E+013 
25300 1.54201E+013 
25350 1.53227E+013 
25400 1.52258E+013 
25450 1.51295E+013 
25500 1.50337E+013 
25550 1.49385E+013 
25600 1.48438E+013 
25650 1.47497E+013 
25700 1.46562E+013 
25750 1.45632E+013 
25800 1.44707E+013 
25850 1.43788E+013 
25900 1.42874E+013 
25950 1.41966E+013 
26000 1.41062E+013 
26050 1.40165E+013 
26100 1.39272E+013 
26150 1.38385E+013 
26200 1.37503E+013 
26250 1.36626E+013 
26300 1.35754E+013 
26350 1.34888E+013 
26400 1.34027E+013 
26450 1.3317E+013 
26500 1.32319E+013 
26550 1.31473E+013 
26600 1.30632E+013 
26650 1.29796E+013 
26700 1.28964E+013 
26750 1.28138E+013 
26800 1.27317E+013 
26850 1.26501E+013 
26900 1.25689E+013 
26950 1.24882E+013 
27000 1.24081E+013 
27050 1.23284E+013 
27100 1.22491E+013 
27150 1.21704E+013 
27200 1.20921E+013 
27250 1.20143E+013 
27300 1.19369E+013 
27350 1.186E+013 
27400 1.17836E+013 
27450 1.17077E+013 
27500 1.16322E+013 
27550 1.15571E+013 
27600 1.14825E+013 
27650 1.14084E+013 
27700 1.13347E+013 
27750 1.12614E+013 
27800 1.11886E+013 
27850 1.11162E+013 
27900 1.10443E+013 
27950 1.09728E+013 
28000 1.09017E+013 
28050 1.08311E+013 
28100 1.07609E+013 
28150 1.06911E+013 
28200 1.06218E+013 
28250 1.05529E+013 
28300 1.04843E+013 
28350 1.04163E+013 
28400 1.03486E+013 
28450 1.02813E+013 
28500 1.02145E+013 
28550 1.0148E+013 
28600 1.0082E+013 
28650 1.00164E+013 
28700 9.95113E+012 
28750 9.8863E+012 
28800 9.82187E+012 
28850 9.75783E+012 
28900 9.69418E+012 
28950 9.63093E+012 
29000 9.56807E+012 
29050 9.50559E+012 
29100 9.44349E+012 
29150 9.38178E+012 
29200 9.32045E+012 
29250 9.2595E+012 
29300 9.19892E+012 
29350 9.13872E+012 
29400 9.07889E+012 
29450 9.01943E+012 
29500 8.96034E+012 
29550 8.90161E+012 
29600 8.84325E+012 
29650 8.78525E+012 
29700 8.72761E+012 
29750 8.67032E+012 
29800 8.61339E+012 
29850 8.55682E+012 
29900 8.5006E+012 
29950 8.44473E+012 
30000 8.3892E+012 
30050 8.33402E+012 
30100 8.27919E+012 
30150 8.22469E+012 
30200 8.17054E+012 
30250 8.11672E+012 
30300 8.06324E+012 
30350 8.0101E+012 
30400 7.95729E+012 
30450 7.9048E+012 
30500 7.85265E+012 
30550 7.80082E+012 
30600 7.74932E+012 
30650 7.69814E+012 
30700 7.64728E+012 
30750 7.59674E+012 
30800 7.54652E+012 
30850 7.49661E+012 
30900 7.44702E+012 
30950 7.39774E+012 
31000 7.34877E+012 
31050 7.30011E+012 
31100 7.25175E+012 
31150 7.2037E+012 
31200 7.15595E+012 
31250 7.10851E+012 
31300 7.06136E+012 
31350 7.01451E+012 
31400 6.96796E+012 
31450 6.9217E+012 
31500 6.87573E+012 
31550 6.83006E+012 
31600 6.78467E+012 
31650 6.73957E+012 
31700 6.69476E+012 
31750 6.65024E+012 
31800 6.60599E+012 
31850 6.56202E+012 
31900 6.51834E+012 
31950 6.47493E+012 
32000 6.4318E+012 
32050 6.38894E+012 
32100 6.34636E+012 
32150 6.30405E+012 
32200 6.262E+012 
32250 6.22023E+012 
32300 6.17872E+012 
32350 6.13747E+012 
32400 6.09649E+012 
32450 6.05577E+012 
32500 6.01531E+012 
32550 5.97511E+012 
32600 5.93517E+012 
32650 5.89548E+012 
32700 5.85605E+012 
32750 5.81687E+012 
32800 5.77794E+012 
32850 5.73925E+012 
32900 5.70082E+012 
32950 5.66264E+012 
33000 5.62469E+012 
33050 5.587E+012 
33100 5.54954E+012 
33150 5.51233E+012 
33200 5.47535E+012 
33250 5.43861E+012 
33300 5.40211E+012 
33350 5.36584E+012 
33400 5.32981E+012 
33450 5.29401E+012 
33500 5.25844E+012 
33550 5.2231E+012 
33600 5.18799E+012 
33650 5.1531E+012 
33700 5.11844E+012 
33750 5.08401E+012 
33800 5.04979E+012 
33850 5.0158E+012 
33900 4.98203E+012 
33950 4.94847E+012 
34000 4.91513E+012 
34050 4.88201E+012 
34100 4.84911E+012 
34150 4.81641E+012 
34200 4.78393E+012 
34250 4.75166E+012 
34300 4.7196E+012 
34350 4.68775E+012 
34400 4.6561E+012 
34450 4.62466E+012 
34500 4.59342E+012 
34550 4.56239E+012 
34600 4.53156E+012 
34650 4.50093E+012 
34700 4.4705E+012 
34750 4.44026E+012 
34800 4.41023E+012 
34850 4.38039E+012 
34900 4.35074E+012 
34950 4.32129E+012 
35000 4.29203E+012 
35050 4.26296E+012 
35100 4.23408E+012 
35150 4.20539E+012 
35200 4.17688E+012 
35250 4.14857E+012 
35300 4.12043E+012 
35350 4.09248E+012 
35400 4.06472E+012 
35450 4.03714E+012 
35500 4.00973E+012 
35550 3.98251E+012 
35600 3.95547E+012 
35650 3.9286E+012 
35700 3.90191E+012 
35750 3.87539E+012 
35800 3.84905E+012 
35850 3.82288E+012 
35900 3.79688E+012 
35950 3.77105E+012 
36000 3.7454E+012 
36050 3.71991E+012 
36100 3.69459E+012 
36150 3.66944E+012 
36200 3.64445E+012 
36250 3.61962E+012 
36300 3.59496E+012 
36350 3.57047E+012 
36400 3.54613E+012 
36450 3.52195E+012 
36500 3.49794E+012 
36550 3.47408E+012 
36600 3.45038E+012 
36650 3.42683E+012 
36700 3.40345E+012 
36750 3.38021E+012 
36800 3.35713E+012 
36850 3.3342E+012 
36900 3.31143E+012 
36950 3.2888E+012 
37000 3.26633E+012 
37050 3.244E+012 
37100 3.22182E+012 
37150 3.19979E+012 
37200 3.1779E+012 
37250 3.15616E+012 
37300 3.13456E+012 
37350 3.11311E+012 
37400 3.0918E+012 
37450 3.07063E+012 
37500 3.0496E+012 
37550 3.02871E+012 
37600 3.00795E+012 
37650 2.98734E+012 
37700 2.96686E+012 
37750 2.94652E+012 
37800 2.92632E+012 
37850 2.90625E+012 
37900 2.88631E+012 
37950 2.86651E+012 
38000 2.84684E+012 
38050 2.82729E+012 
38100 2.80788E+012 
38150 2.7886E+012 
38200 2.76945E+012 
38250 2.75042E+012 
38300 2.73152E+012 
38350 2.71275E+012 
38400 2.6941E+012 
38450 2.67558E+012 
38500 2.65718E+012 
38550 2.63891E+012 
38600 2.62075E+012 
38650 2.60272E+012 
38700 2.58481E+012 
38750 2.56701E+012 
38800 2.54934E+012 
38850 2.53179E+012 
38900 2.51435E+012 
38950 2.49703E+012 
39000 2.47982E+012 
39050 2.46273E+012 
39100 2.44576E+012 
39150 2.4289E+012 
39200 2.41215E+012 
39250 2.39552E+012 
39300 2.37899E+012 
39350 2.36258E+012 
39400 2.34628E+012 
39450 2.33008E+012 
39500 2.314E+012 
39550 2.29802E+012 
39600 2.28215E+012 
39650 2.26639E+012 
39700 2.25073E+012 
39750 2.23518E+012 
39800 2.21973E+012 
39850 2.20439E+012 
39900 2.18915E+012 
39950 2.17401E+012 
40000 2.15898E+012 
40050 2.14405E+012 
40100 2.12921E+012 
40150 2.11448E+012 
40200 2.09985E+012 
40250 2.08531E+012 
40300 2.07087E+012 
40350 2.05653E+012 
40400 2.04229E+012 
40450 2.02814E+012 
40500 2.01409E+012 
40550 2.00014E+012 
40600 1.98628E+012 
40650 1.97251E+012 
40700 1.95883E+012 
40750 1.94525E+012 
40800 1.93176E+012 
40850 1.91836E+012 
40900 1.90505E+012 
40950 1.89183E+012 
41000 1.8787E+012 
41050 1.86566E+012 
41100 1.85271E+012 
41150 1.83984E+012 
41200 1.82707E+012 
41250 1.81438E+012 
41300 1.80177E+012 
41350 1.78925E+012 
41400 1.77682E+012 
41450 1.76447E+012 
41500 1.7522E+012 
41550 1.74002E+012 
41600 1.72792E+012 
41650 1.7159E+012 
41700 1.70396E+012 
41750 1.69211E+012 
41800 1.68033E+012 
41850 1.66864E+012 
41900 1.65702E+012 
41950 1.64549E+012 
42000 1.63403E+012 
42050 1.62265E+012 
42100 1.61135E+012 
42150 1.60012E+012 
42200 1.58897E+012 
42250 1.5779E+012 
42300 1.5669E+012 
42350 1.55598E+012 
42400 1.54513E+012 
42450 1.53435E+012 
42500 1.52365E+012 
42550 1.51303E+012 
42600 1.50247E+012 
42650 1.49199E+012 
42700 1.48157E+012 
42750 1.47123E+012 
42800 1.46096E+012 
42850 1.45076E+012 
42900 1.44063E+012 
42950 1.43057E+012 
43000 1.42058E+012 
43050 1.41065E+012 
43100 1.4008E+012 
43150 1.39101E+012 
43200 1.38128E+012 
43250 1.37163E+012 
43300 1.36204E+012 
43350 1.35252E+012 
43400 1.34306E+012 
43450 1.33366E+012 
43500 1.32433E+012 
43550 1.31507E+012 
43600 1.30586E+012 
43650 1.29673E+012 
43700 1.28765E+012 
43750 1.27863E+012 
43800 1.26968E+012 
43850 1.26079E+012 
43900 1.25196E+012 
43950 1.24319E+012 
44000 1.23448E+012 
44050 1.22583E+012 
44100 1.21724E+012 
44150 1.20871E+012 
44200 1.20023E+012 
44250 1.19182E+012 
44300 1.18346E+012 
44350 1.17516E+012 
44400 1.16692E+012 
44450 1.15873E+012 
44500 1.1506E+012 
44550 1.14253E+012 
44600 1.13451E+012 
44650 1.12655E+012 
44700 1.11864E+012 
44750 1.11079E+012 
44800 1.10299E+012 
44850 1.09524E+012 
44900 1.08755E+012 
44950 1.07991E+012 
45000 1.07232E+012 
45050 1.06479E+012 
45100 1.05731E+012 
45150 1.04987E+012 
45200 1.04249E+012 
45250 1.03516E+012 
45300 1.02789E+012 
45350 1.02066E+012 
45400 1.01348E+012 
45450 1.00635E+012 
45500 9.9927E+011 
45550 9.92239E+011 
45600 9.85256E+011 
45650 9.78322E+011 
45700 9.71435E+011 
45750 9.64597E+011 
45800 9.57805E+011 
45850 9.5106E+011 
45900 9.44362E+011 
45950 9.37711E+011 
46000 9.31105E+011 
46050 9.24545E+011 
46100 9.1803E+011 
46150 9.1156E+011 
46200 9.05136E+011 
46250 8.98755E+011 
46300 8.92419E+011 
46350 8.86126E+011 
46400 8.79878E+011 
46450 8.73672E+011 
46500 8.6751E+011 
46550 8.6139E+011 
46600 8.55312E+011 
46650 8.49277E+011 
46700 8.43283E+011 
46750 8.37332E+011 
46800 8.31421E+011 
46850 8.25551E+011 
46900 8.19722E+011 
46950 8.13934E+011 
47000 8.08185E+011 
47050 8.02477E+011 
47100 7.96808E+011 
47150 7.91178E+011 
47200 7.85588E+011 
47250 7.80036E+011 
47300 7.74523E+011 
47350 7.69049E+011 
47400 7.63612E+011 
47450 7.58213E+011 
47500 7.52851E+011 
47550 7.47527E+011 
47600 7.4224E+011 
47650 7.3699E+011 
47700 7.31776E+011 
47750 7.26598E+011 
47800 7.21457E+011 
47850 7.16351E+011 
47900 7.11281E+011 
47950 7.06246E+011 
48000 7.01246E+011 
48050 6.96281E+011 
48100 6.9135E+011 
48150 6.86454E+011 
48200 6.81592E+011 
48250 6.76764E+011 
48300 6.71969E+011 
48350 6.67208E+011 
48400 6.6248E+011 
48450 6.57785E+011 
48500 6.53123E+011 
48550 6.48493E+011 
48600 6.43896E+011 
48650 6.3933E+011 
48700 6.34797E+011 
48750 6.30295E+011 
48800 6.25824E+011 
48850 6.21385E+011 
48900 6.16977E+011 
48950 6.12599E+011 
49000 6.08252E+011 
49050 6.03936E+011 
49100 5.99649E+011 
49150 5.95393E+011 
49200 5.91166E+011 
49250 5.86969E+011 
49300 5.82801E+011 
49350 5.78662E+011 
49400 5.74552E+011 
49450 5.70471E+011 
49500 5.66419E+011 
49550 5.62395E+011 
49600 5.58399E+011 
49650 5.54431E+011 
49700 5.5049E+011 
49750 5.46578E+011 
49800 5.42693E+011 
49850 5.38834E+011 
49900 5.35003E+011 
49950 5.31199E+011 
50000 5.27422E+011 
50050 5.2367E+011 
50100 5.19945E+011 
50150 5.16247E+011 
50200 5.12574E+011 
50250 5.08927E+011 
50300 5.05305E+011 
50350 5.01709E+011 
50400 4.98138E+011 
50450 4.94592E+011 
50500 4.91071E+011 
50550 4.87575E+011 
50600 4.84103E+011 
50650 4.80656E+011 
50700 4.77233E+011 
50750 4.73834E+011 
50800 4.70458E+011 
50850 4.67107E+011 
50900 4.63779E+011 
50950 4.60474E+011 
51000 4.57192E+011 
51050 4.53934E+011 
51100 4.50698E+011 
51150 4.47486E+011 
51200 4.44295E+011 
51250 4.41128E+011 
51300 4.37982E+011 
51350 4.34858E+011 
51400 4.31757E+011 
51450 4.28677E+011 
51500 4.25619E+011 
51550 4.22583E+011 
51600 4.19568E+011 
51650 4.16574E+011 
51700 4.13601E+011 
51750 4.10649E+011 
51800 4.07718E+011 
51850 4.04808E+011 
51900 4.01918E+011 
51950 3.99048E+011 
52000 3.96199E+011 
52050 3.93369E+011 
52100 3.9056E+011 
52150 3.8777E+011 
52200 3.85E+011 
52250 3.8225E+011 
52300 3.79519E+011 
52350 3.76807E+011 
52400 3.74114E+011 
52450 3.7144E+011 
52500 3.68786E+011 
52550 3.6615E+011 
52600 3.63532E+011 
52650 3.60933E+011 
52700 3.58352E+011 
52750 3.5579E+011 
52800 3.53245E+011 
52850 3.50719E+011 
52900 3.4821E+011 
52950 3.45719E+011 
53000 3.43246E+011 
53050 3.4079E+011 
53100 3.38351E+011 
53150 3.3593E+011 
53200 3.33526E+011 
53250 3.31139E+011 
53300 3.28768E+011 
53350 3.26415E+011 
53400 3.24078E+011 
53450 3.21758E+011 
53500 3.19453E+011 
53550 3.17166E+011 
53600 3.14894E+011 
53650 3.12639E+011 
53700 3.10399E+011 
53750 3.08176E+011 
53800 3.05967E+011 
53850 3.03775E+011 
53900 3.01598E+011 
53950 2.99437E+011 
54000 2.97291E+011 
54050 2.9516E+011 
54100 2.93044E+011 
54150 2.90943E+011 
54200 2.88857E+011 
54250 2.86786E+011 
54300 2.84729E+011 
54350 2.82688E+011 
54400 2.8066E+011 
54450 2.78647E+011 
54500 2.76648E+011 
54550 2.74663E+011 
54600 2.72693E+011 
54650 2.70736E+011 
54700 2.68793E+011 
54750 2.66864E+011 
54800 2.64949E+011 
54850 2.63047E+011 
54900 2.61159E+011 
54950 2.59284E+011 
55000 2.57422E+011 
55050 2.55574E+011 
55100 2.53739E+011 
55150 2.51917E+011 
55200 2.50107E+011 
55250 2.48311E+011 
55300 2.46527E+011 
55350 2.44756E+011 
55400 2.42998E+011 
55450 2.41252E+011 
55500 2.39518E+011 
55550 2.37797E+011 
55600 2.36088E+011 
55650 2.34391E+011 
55700 2.32706E+011 
55750 2.31033E+011 
55800 2.29372E+011 
55850 2.27723E+011 
55900 2.26086E+011 
55950 2.2446E+011 
56000 2.22846E+011 
56050 2.21243E+011 
56100 2.19652E+011 
56150 2.18071E+011 
56200 2.16503E+011 
56250 2.14945E+011 
56300 2.13399E+011 
56350 2.11863E+011 
56400 2.10338E+011 
56450 2.08825E+011 
56500 2.07322E+011 
56550 2.05829E+011 
56600 2.04348E+011 
56650 2.02877E+011 
56700 2.01416E+011 
56750 1.99966E+011 
56800 1.98526E+011 
56850 1.97096E+011 
56900 1.95677E+011 
56950 1.94267E+011 
57000 1.92868E+011 
57050 1.91478E+011 
57100 1.90099E+011 
57150 1.88729E+011 
57200 1.8737E+011 
57250 1.86019E+011 
57300 1.84679E+011 
57350 1.83348E+011 
57400 1.82026E+011 
57450 1.80714E+011 
57500 1.79412E+011 
57550 1.78118E+011 
57600 1.76834E+011 
57650 1.75559E+011 
57700 1.74293E+011 
57750 1.73036E+011 
57800 1.71788E+011 
57850 1.70549E+011 
57900 1.69319E+011 
57950 1.68098E+011 
58000 1.66885E+011 
58050 1.65681E+011 
58100 1.64486E+011 
58150 1.63299E+011 
58200 1.6212E+011 
58250 1.6095E+011 
58300 1.59789E+011 
58350 1.58635E+011 
58400 1.5749E+011 
58450 1.56353E+011 
58500 1.55225E+011 
58550 1.54104E+011 
58600 1.52991E+011 
58650 1.51886E+011 
58700 1.5079E+011 
58750 1.49701E+011 
58800 1.48619E+011 
58850 1.47546E+011 
58900 1.4648E+011 
58950 1.45422E+011 
59000 1.44371E+011 
59050 1.43328E+011 
59100 1.42293E+011 
59150 1.41264E+011 
59200 1.40243E+011 
59250 1.3923E+011 
59300 1.38224E+011 
59350 1.37224E+011 
59400 1.36232E+011 
59450 1.35248E+011 
59500 1.3427E+011 
59550 1.33299E+011 
59600 1.32335E+011 
59650 1.31378E+011 
59700 1.30428E+011 
59750 1.29485E+011 
59800 1.28548E+011 
59850 1.27618E+011 
59900 1.26695E+011 
59950 1.25779E+011 
60000 1.24869E+011 
60050 1.23965E+011 
60100 1.23068E+011 
60150 1.22178E+011 
60200 1.21293E+011 
60250 1.20416E+011 
60300 1.19544E+011 
60350 1.18679E+011 
60400 1.1782E+011 
60450 1.16967E+011 
60500 1.1612E+011 
60550 1.15279E+011 
60600 1.14445E+011 
60650 1.13616E+011 
60700 1.12793E+011 
60750 1.11976E+011 
60800 1.11165E+011 
60850 1.1036E+011 
60900 1.09561E+011 
60950 1.08767E+011 
61000 1.07979E+011 
61050 1.07197E+011 
61100 1.0642E+011 
61150 1.05649E+011 
61200 1.04883E+011 
61250 1.04123E+011 
61300 1.03369E+011 
61350 1.02619E+011 
61400 1.01876E+011 
61450 1.01137E+011 
61500 1.00404E+011 
61550 9.96761E+010 
61600 9.89534E+010 
61650 9.8236E+010 
61700 9.75236E+010 
61750 9.68164E+010 
61800 9.61143E+010 
61850 9.54173E+010 
61900 9.47252E+010 
61950 9.40381E+010 
62000 9.3356E+010 
62050 9.26787E+010 
62100 9.20064E+010 
62150 9.13388E+010 
62200 9.06761E+010 
62250 9.00181E+010 
62300 8.93649E+010 
62350 8.87164E+010 
62400 8.80725E+010 
62450 8.74333E+010 
62500 8.67987E+010 
62550 8.61686E+010 
62600 8.55431E+010 
62650 8.4922E+010 
62700 8.43055E+010 
62750 8.36934E+010 
62800 8.30857E+010 
62850 8.24823E+010 
62900 8.18833E+010 
62950 8.12887E+010 
63000 8.06983E+010 
63050 8.01121E+010 
63100 7.95302E+010 
63150 7.89525E+010 
63200 7.83789E+010 
63250 7.78095E+010 
63300 7.72442E+010 
63350 7.66829E+010 
63400 7.61257E+010 
63450 7.55725E+010 
63500 7.50233E+010 
63550 7.44781E+010 
63600 7.39367E+010 
63650 7.33993E+010 
63700 7.28658E+010 
63750 7.23361E+010 
63800 7.18102E+010 
63850 7.12882E+010 
63900 7.07698E+010 
63950 7.02553E+010 
64000 6.97444E+010 
64050 6.92372E+010 
64100 6.87337E+010 
64150 6.82338E+010 
64200 6.77375E+010 
64250 6.72448E+010 
64300 6.67557E+010 
64350 6.62701E+010 
64400 6.57879E+010 
64450 6.53093E+010 
64500 6.48341E+010 
64550 6.43624E+010 
64600 6.3894E+010 
64650 6.34291E+010 
64700 6.29675E+010 
64750 6.25092E+010 
64800 6.20543E+010 
64850 6.16026E+010 
64900 6.11542E+010 
64950 6.0709E+010 
65000 6.0267E+010 
65050 5.98283E+010 
65100 5.93927E+010 
65150 5.89602E+010 
65200 5.85309E+010 
65250 5.81047E+010 
65300 5.76816E+010 
65350 5.72615E+010 
65400 5.68444E+010 
65450 5.64304E+010 
65500 5.60194E+010 
65550 5.56113E+010 
65600 5.52062E+010 
65650 5.4804E+010 
65700 5.44047E+010 
65750 5.40083E+010 
65800 5.36148E+010 
65850 5.32241E+010 
65900 5.28363E+010 
65950 5.24512E+010 
66000 5.2069E+010 
66050 5.16895E+010 
66100 5.13127E+010 
66150 5.09387E+010 
66200 5.05674E+010 
66250 5.01987E+010 
66300 4.98328E+010 
66350 4.94695E+010 
66400 4.91088E+010 
66450 4.87507E+010 
66500 4.83952E+010 
66550 4.80423E+010 
66600 4.7692E+010 
66650 4.73441E+010 
66700 4.69989E+010 
66750 4.6656E+010 
66800 4.63157E+010 
66850 4.59779E+010 
66900 4.56425E+010 
66950 4.53095E+010 
67000 4.49789E+010 
67050 4.46508E+010 
67100 4.4325E+010 
67150 4.40015E+010 
67200 4.36804E+010 
67250 4.33617E+010 
67300 4.30452E+010 
67350 4.27311E+010 
67400 4.24192E+010 
67450 4.21096E+010 
67500 4.18022E+010 
67550 4.14971E+010 
67600 4.11941E+010 
67650 4.08934E+010 
67700 4.05948E+010 
67750 4.02984E+010 
67800 4.00042E+010 
67850 3.97121E+010 
67900 3.94221E+010 
67950 3.91342E+010 
68000 3.88484E+010 
68050 3.85647E+010 
68100 3.8283E+010 
68150 3.80034E+010 
68200 3.77257E+010 
68250 3.74502E+010 
68300 3.71766E+010 
68350 3.6905E+010 
68400 3.66353E+010 
68450 3.63677E+010 
68500 3.61019E+010 
68550 3.58381E+010 
68600 3.55763E+010 
68650 3.53163E+010 
68700 3.50582E+010 
68750 3.4802E+010 
68800 3.45476E+010 
68850 3.42951E+010 
68900 3.40444E+010 
68950 3.37955E+010 
69000 3.35485E+010 
69050 3.33032E+010 
69100 3.30597E+010 
69150 3.2818E+010 
69200 3.25781E+010 
69250 3.23398E+010 
69300 3.21034E+010 
69350 3.18686E+010 
69400 3.16355E+010 
69450 3.14042E+010 
69500 3.11745E+010 
69550 3.09465E+010 
69600 3.07201E+010 
69650 3.04954E+010 
69700 3.02723E+010 
69750 3.00509E+010 
69800 2.9831E+010 
69850 2.96128E+010 
69900 2.93961E+010 
69950 2.9181E+010 
70000 2.89675E+010 
70050 2.87555E+010 
70100 2.85451E+010 
70150 2.83362E+010 
70200 2.81288E+010 
70250 2.79229E+010 
70300 2.77185E+010 
70350 2.75156E+010 
70400 2.73142E+010 
70450 2.71143E+010 
70500 2.69158E+010 
70550 2.67187E+010 
70600 2.65231E+010 
70650 2.63289E+010 
70700 2.61361E+010 
70750 2.59448E+010 
70800 2.57548E+010 
70850 2.55662E+010 
70900 2.53789E+010 
70950 2.51931E+010 
71000 2.50086E+010 
71050 2.48254E+010 
71100 2.46436E+010 
71150 2.44631E+010 
71200 2.42839E+010 
71250 2.4106E+010 
71300 2.39294E+010 
71350 2.3754E+010 
71400 2.358E+010 
71450 2.34072E+010 
71500 2.32357E+010 
71550 2.30655E+010 
71600 2.28964E+010 
71650 2.27287E+010 
71700 2.25621E+010 
71750 2.23967E+010 
71800 2.22326E+010 
71850 2.20696E+010 
71900 2.19079E+010 
71950 2.17473E+010 
72000 2.15879E+010 
72050 2.14296E+010 
72100 2.12725E+010 
72150 2.11166E+010 
72200 2.09617E+010 
72250 2.0808E+010 
72300 2.06555E+010 
72350 2.0504E+010 
72400 2.03537E+010 
72450 2.02044E+010 
72500 2.00562E+010 
72550 1.99091E+010 
72600 1.97631E+010 
72650 1.96182E+010 
72700 1.94743E+010 
72750 1.93314E+010 
72800 1.91896E+010 
72850 1.90488E+010 
72900 1.89091E+010 
72950 1.87704E+010 
73000 1.86327E+010 
73050 1.8496E+010 
73100 1.83603E+010 
73150 1.82255E+010 
73200 1.80918E+010 
73250 1.7959E+010 
73300 1.78273E+010 
73350 1.76964E+010 
73400 1.75665E+010 
73450 1.74376E+010 
73500 1.73096E+010 
73550 1.71826E+010 
73600 1.70564E+010 
73650 1.69312E+010 
73700 1.68069E+010 
73750 1.66836E+010 
73800 1.65611E+010 
73850 1.64395E+010 
73900 1.63188E+010 
73950 1.6199E+010 
74000 1.608E+010 
74050 1.5962E+010 
74100 1.58448E+010 
74150 1.57284E+010 
74200 1.56129E+010 
74250 1.54982E+010 
74300 1.53844E+010 
74350 1.52714E+010 
74400 1.51592E+010 
74450 1.50479E+010 
74500 1.49374E+010 
74550 1.48276E+010 
74600 1.47187E+010 
74650 1.46106E+010 
74700 1.45032E+010 
74750 1.43967E+010 
74800 1.42909E+010 
74850 1.41859E+010 
74900 1.40816E+010 
74950 1.39782E+010 
75000 1.38754E+010 
75050 1.37735E+010 
75100 1.36723E+010 
75150 1.35718E+010 
75200 1.3472E+010 
75250 1.3373E+010 
75300 1.32747E+010 
75350 1.31771E+010 
75400 1.30803E+010 
75450 1.29841E+010 
75500 1.28887E+010 
75550 1.27939E+010 
75600 1.26999E+010 
75650 1.26065E+010 
75700 1.25138E+010 
75750 1.24218E+010 
75800 1.23304E+010 
75850 1.22398E+010 
75900 1.21498E+010 
75950 1.20604E+010 
76000 1.19717E+010 
76050 1.18837E+010 
76100 1.17963E+010 
76150 1.17095E+010 
76200 1.16234E+010 
76250 1.15379E+010 
76300 1.1453E+010 
76350 1.13688E+010 
76400 1.12852E+010 
76450 1.12021E+010 
76500 1.11197E+010 
76550 1.10379E+010 
76600 1.09567E+010 
76650 1.08761E+010 
76700 1.07961E+010 
76750 1.07166E+010 
76800 1.06378E+010 
76850 1.05595E+010 
76900 1.04818E+010 
76950 1.04046E+010 
77000 1.03281E+010 
77050 1.02521E+010 
77100 1.01766E+010 
77150 1.01017E+010 
77200 1.00273E+010 
77250 9.95353E+009 
77300 9.88026E+009 
77350 9.80752E+009 
77400 9.73532E+009 
77450 9.66365E+009 
77500 9.59251E+009 
77550 9.52188E+009 
77600 9.45177E+009 
77650 9.38218E+009 
77700 9.3131E+009 
77750 9.24452E+009 
77800 9.17645E+009 
77850 9.10887E+009 
77900 9.04179E+009 
77950 8.9752E+009 
78000 8.9091E+009 
78050 8.84348E+009 
78100 8.77835E+009 
78150 8.71369E+009 
78200 8.64951E+009 
78250 8.58579E+009 
78300 8.52255E+009 
78350 8.45977E+009 
78400 8.39744E+009 
78450 8.33558E+009 
78500 8.27417E+009 
78550 8.21321E+009 
78600 8.15269E+009 
78650 8.09262E+009 
78700 8.03299E+009 
78750 7.9738E+009 
78800 7.91504E+009 
78850 7.85671E+009 
78900 7.79882E+009 
78950 7.74134E+009 
79000 7.68429E+009 
79050 7.62765E+009 
79100 7.57144E+009 
79150 7.51563E+009 
79200 7.46023E+009 
79250 7.40524E+009 
79300 7.35065E+009 
79350 7.29647E+009 
79400 7.24268E+009 
79450 7.18928E+009 
79500 7.13628E+009 
79550 7.08367E+009 
79600 7.03144E+009 
79650 6.9796E+009 
79700 6.92814E+009 
79750 6.87705E+009 
79800 6.82634E+009 
79850 6.776E+009 
79900 6.72603E+009 
79950 6.67643E+009 
80000 6.62719E+009 
80050 6.57832E+009 
80100 6.5298E+009 
80150 6.48164E+009 
80200 6.43383E+009 
80250 6.38638E+009 
80300 6.33927E+009 
80350 6.29251E+009 
80400 6.24609E+009 
80450 6.20001E+009 
80500 6.15427E+009 
80550 6.10887E+009 
80600 6.0638E+009 
80650 6.01906E+009 
80700 5.97465E+009 
80750 5.93057E+009 
80800 5.88681E+009 
80850 5.84337E+009 
80900 5.80025E+009 
80950 5.75745E+009 
81000 5.71496E+009 
81050 5.67279E+009 
81100 5.63092E+009 
81150 5.58936E+009 
81200 5.54811E+009 
81250 5.50716E+009 
81300 5.46651E+009 
81350 5.42617E+009 
81400 5.38611E+009 
81450 5.34635E+009 
81500 5.30689E+009 
81550 5.26771E+009 
81600 5.22882E+009 
81650 5.19022E+009 
81700 5.1519E+009 
81750 5.11387E+009 
81800 5.07611E+009 
81850 5.03863E+009 
81900 5.00142E+009 
81950 4.96449E+009 
82000 4.92784E+009 
82050 4.89145E+009 
82100 4.85533E+009 
82150 4.81947E+009 
82200 4.78388E+009 
82250 4.74855E+009 
82300 4.71348E+009 
82350 4.67866E+009 
82400 4.64411E+009 
82450 4.6098E+009 
82500 4.57575E+009 
82550 4.54195E+009 
82600 4.5084E+009 
82650 4.4751E+009 
82700 4.44204E+009 
82750 4.40922E+009 
82800 4.37665E+009 
82850 4.34431E+009 
82900 4.31222E+009 
82950 4.28036E+009 
83000 4.24873E+009 
83050 4.21734E+009 
83100 4.18618E+009 
83150 4.15524E+009 
83200 4.12454E+009 
83250 4.09406E+009 
83300 4.0638E+009 
83350 4.03377E+009 
83400 4.00396E+009 
83450 3.97437E+009 
83500 3.94499E+009 
83550 3.91584E+009 
83600 3.88689E+009 
83650 3.85816E+009 
83700 3.82965E+009 
83750 3.80134E+009 
83800 3.77324E+009 
83850 3.74534E+009 
83900 3.71766E+009 
83950 3.69017E+009 
84000 3.66289E+009 
84050 3.63581E+009 
84100 3.60893E+009 
84150 3.58225E+009 
84200 3.55576E+009 
84250 3.52947E+009 
84300 3.50337E+009 
84350 3.47747E+009 
84400 3.45175E+009 
84450 3.42622E+009 
84500 3.40089E+009 
84550 3.37574E+009 
84600 3.35077E+009 
84650 3.32599E+009 
84700 3.30139E+009 
84750 3.27697E+009 
84800 3.25274E+009 
84850 3.22868E+009 
84900 3.2048E+009 
84950 3.18109E+009 
85000 3.15756E+009 
85050 3.1342E+009 
85100 3.11102E+009 
85150 3.088E+009 
85200 3.06516E+009 
85250 3.04248E+009 
85300 3.01997E+009 
85350 2.99763E+009 
85400 2.97545E+009 
85450 2.95343E+009 
85500 2.93158E+009 
85550 2.90989E+009 
85600 2.88836E+009 
85650 2.86698E+009 
85700 2.84577E+009 
85750 2.82471E+009 
85800 2.8038E+009 
85850 2.78305E+009 
85900 2.76246E+009 
85950 2.74201E+009 
86000 2.72172E+009 
86050 2.70157E+009 
86100 2.68158E+009 
86150 2.66173E+009 
86200 2.64203E+009 
86250 2.62247E+009 
86300 2.60306E+009 
86350 2.58379E+009 
86400 2.56466E+009 
86450 2.54567E+009 
86500 2.52683E+009 
86550 2.50812E+009 
86600 2.48955E+009 
86650 2.47112E+009 
86700 2.45282E+009 
86750 2.43466E+009 
86800 2.41663E+009 
86850 2.39874E+009 
86900 2.38098E+009 
86950 2.36335E+009 
87000 2.34585E+009 
87050 2.32847E+009 
87100 2.31123E+009 
87150 2.29411E+009 
87200 2.27712E+009 
87250 2.26026E+009 
87300 2.24352E+009 
87350 2.2269E+009 
87400 2.21041E+009 
87450 2.19404E+009 
87500 2.17779E+009 
87550 2.16165E+009 
87600 2.14564E+009 
87650 2.12975E+009 
87700 2.11397E+009 
87750 2.09831E+009 
87800 2.08277E+009 
87850 2.06734E+009 
87900 2.05202E+009 
87950 2.03682E+009 
88000 2.02173E+009 
88050 2.00675E+009 
88100 1.99188E+009 
88150 1.97712E+009 
88200 1.96247E+009 
88250 1.94793E+009 
88300 1.93349E+009 
88350 1.91916E+009 
88400 1.90494E+009 
88450 1.89083E+009 
88500 1.87681E+009 
88550 1.8629E+009 
88600 1.8491E+009 
88650 1.83539E+009 
88700 1.82179E+009 
88750 1.80829E+009 
88800 1.79488E+009 
88850 1.78158E+009 
88900 1.76838E+009 
88950 1.75527E+009 
89000 1.74226E+009 
89050 1.72934E+009 
89100 1.71652E+009 
89150 1.7038E+009 
89200 1.69117E+009 
89250 1.67863E+009 
89300 1.66618E+009 
89350 1.65383E+009 
89400 1.64157E+009 
89450 1.6294E+009 
89500 1.61732E+009 
89550 1.60532E+009 
89600 1.59342E+009 
89650 1.5816E+009 
89700 1.56988E+009 
89750 1.55824E+009 
89800 1.54668E+009 
89850 1.53521E+009 
89900 1.52383E+009 
89950 1.51253E+009 
90000 1.50131E+009 
90050 1.49017E+009 
90100 1.47912E+009 
90150 1.46815E+009 
90200 1.45726E+009 
90250 1.44645E+009 
90300 1.43572E+009 
90350 1.42507E+009 
90400 1.4145E+009 
90450 1.40401E+009 
90500 1.3936E+009 
90550 1.38326E+009 
90600 1.373E+009 
90650 1.36281E+009 
90700 1.3527E+009 
90750 1.34267E+009 
90800 1.3327E+009 
90850 1.32282E+009 
90900 1.313E+009 
90950 1.30326E+009 
91000 1.29359E+009 
91050 1.28399E+009 
91100 1.27447E+009 
91150 1.26501E+009 
91200 1.25562E+009 
91250 1.2463E+009 
91300 1.23705E+009 
91350 1.22787E+009 
91400 1.21876E+009 
91450 1.20972E+009 
91500 1.20074E+009 
91550 1.19183E+009 
91600 1.18298E+009 
91650 1.1742E+009 
91700 1.16549E+009 
91750 1.15684E+009 
91800 1.14825E+009 
91850 1.13973E+009 
91900 1.13127E+009 
91950 1.12287E+009 
92000 1.11454E+009 
92050 1.10626E+009 
92100 1.09805E+009 
92150 1.0899E+009 
92200 1.08181E+009 
92250 1.07378E+009 
92300 1.0658E+009 
92350 1.05789E+009 
92400 1.05004E+009 
92450 1.04224E+009 
92500 1.0345E+009 
92550 1.02682E+009 
92600 1.0192E+009 
92650 1.01163E+009 
92700 1.00412E+009 
92750 9.96661E+008 
92800 9.8926E+008 
92850 9.81914E+008 
92900 9.74622E+008 
92950 9.67384E+008 
93000 9.602E+008 
93050 9.53069E+008 
93100 9.45991E+008 
93150 9.38965E+008 
93200 9.31991E+008 
93250 9.25069E+008 
93300 9.18199E+008 
93350 9.11379E+008 
93400 9.04609E+008 
93450 8.9789E+008 
93500 8.9122E+008 
93550 8.846E+008 
93600 8.78029E+008 
93650 8.71507E+008 
93700 8.65033E+008 
93750 8.58607E+008 
93800 8.52228E+008 
93850 8.45897E+008 
93900 8.39612E+008 
93950 8.33374E+008 
94000 8.27183E+008 
94050 8.21037E+008 
94100 8.14937E+008 
94150 8.08882E+008 
94200 8.02872E+008 
94250 7.96906E+008 
94300 7.90985E+008 
94350 7.85107E+008 
94400 7.79273E+008 
94450 7.73482E+008 
94500 7.67734E+008 
94550 7.62029E+008 
94600 7.56366E+008 
94650 7.50745E+008 
94700 7.45166E+008 
94750 7.39628E+008 
94800 7.34131E+008 
94850 7.28675E+008 
94900 7.23259E+008 
94950 7.17883E+008 
95000 7.12547E+008 
95050 7.07251E+008 
95100 7.01994E+008 
95150 6.96776E+008 
95200 6.91597E+008 
95250 6.86456E+008 
95300 6.81353E+008 
95350 6.76288E+008 
95400 6.7126E+008 
95450 6.6627E+008 
95500 6.61317E+008 
95550 6.56401E+008 
95600 6.51521E+008 
95650 6.46677E+008 
95700 6.41869E+008 
95750 6.37097E+008 
95800 6.3236E+008 
95850 6.27658E+008 
95900 6.22991E+008 
95950 6.18359E+008 
96000 6.13761E+008 
96050 6.09197E+008 
96100 6.04667E+008 
96150 6.00171E+008 
96200 5.95708E+008 
96250 5.91278E+008 
96300 5.86881E+008 
96350 5.82516E+008 
96400 5.78184E+008 
96450 5.73884E+008 
96500 5.69616E+008 
96550 5.6538E+008 
96600 5.61175E+008 
96650 5.57001E+008 
96700 5.52858E+008 
96750 5.48746E+008 
96800 5.44665E+008 
96850 5.40613E+008 
96900 5.36592E+008 
96950 5.32601E+008 
97000 5.28639E+008 
97050 5.24706E+008 
97100 5.20803E+008 
97150 5.16929E+008 
97200 5.13083E+008 
97250 5.09266E+008 
97300 5.05478E+008 
97350 5.01717E+008 
97400 4.97985E+008 
97450 4.9428E+008 
97500 4.90602E+008 
97550 4.86952E+008 
97600 4.83329E+008 
97650 4.79733E+008 
97700 4.76163E+008 
97750 4.7262E+008 
97800 4.69104E+008 
97850 4.65613E+008 
97900 4.62148E+008 
97950 4.58709E+008 
98000 4.55296E+008 
98050 4.51908E+008 
98100 4.48545E+008 
98150 4.45207E+008 
98200 4.41894E+008 
98250 4.38605E+008 
98300 4.35341E+008 
98350 4.32101E+008 
98400 4.28885E+008 
98450 4.25693E+008 
98500 4.22524E+008 
98550 4.1938E+008 
98600 4.16258E+008 
98650 4.1316E+008 
98700 4.10085E+008 
98750 4.07032E+008 
98800 4.04002E+008 
98850 4.00995E+008 
98900 3.9801E+008 
98950 3.95047E+008 
99000 3.92106E+008 
99050 3.89187E+008 
99100 3.8629E+008 
99150 3.83414E+008 
99200 3.8056E+008 
99250 3.77727E+008 
99300 3.74914E+008 
99350 3.72123E+008 
99400 3.69353E+008 
99450 3.66603E+008 
99500 3.63873E+008 
99550 3.61164E+008 
99600 3.58475E+008 
99650 3.55806E+008 
99700 3.53156E+008 
99750 3.50526E+008 
99800 3.47916E+008 
99850 3.45326E+008 
99900 3.42754E+008 
99950 3.40202E+008 
100000 3.37668E+008 
