#F U:\Beamline I20\I20-2_EDE\Wigglers\xop\83mm-small-wiggler\EDE wiggler\1p2T-300mA-0p12x0p9mrad.dat
#C I20EDE 1.2T 300mA 0.12x0.9mrad
#S 1 File written by xplot on Tue Dec 07 18:15:43 2010
#N 2
#L    Energy [eV]  Flux [ph/s/0.1%bw]
50 6.21393E+012 
100 9.85612E+012 
150 1.28971E+013 
200 1.55955E+013 
250 1.80589E+013 
300 2.0345E+013 
350 2.24895E+013 
400 2.45162E+013 
450 2.64423E+013 
500 2.82805E+013 
550 3.00408E+013 
600 3.17309E+013 
650 3.33573E+013 
700 3.49251E+013 
750 3.64388E+013 
800 3.79022E+013 
850 3.93185E+013 
900 4.06905E+013 
950 4.20208E+013 
1000 4.33115E+013 
1050 4.45646E+013 
1100 4.57818E+013 
1150 4.69648E+013 
1200 4.81149E+013 
1250 4.92336E+013 
1300 5.03221E+013 
1350 5.13814E+013 
1400 5.24126E+013 
1450 5.34166E+013 
1500 5.43944E+013 
1550 5.53467E+013 
1600 5.62745E+013 
1650 5.71783E+013 
1700 5.80589E+013 
1750 5.8917E+013 
1800 5.97531E+013 
1850 6.05679E+013 
1900 6.13619E+013 
1950 6.21356E+013 
2000 6.28895E+013 
2050 6.36242E+013 
2100 6.43401E+013 
2150 6.50376E+013 
2200 6.57171E+013 
2250 6.63791E+013 
2300 6.70239E+013 
2350 6.7652E+013 
2400 6.82636E+013 
2450 6.88591E+013 
2500 6.9439E+013 
2550 7.00034E+013 
2600 7.05527E+013 
2650 7.10872E+013 
2700 7.16073E+013 
2750 7.21131E+013 
2800 7.2605E+013 
2850 7.30832E+013 
2900 7.35481E+013 
2950 7.39998E+013 
3000 7.44386E+013 
3050 7.48648E+013 
3100 7.52785E+013 
3150 7.56801E+013 
3200 7.60696E+013 
3250 7.64475E+013 
3300 7.68138E+013 
3350 7.71687E+013 
3400 7.75125E+013 
3450 7.78455E+013 
3500 7.81676E+013 
3550 7.84792E+013 
3600 7.87805E+013 
3650 7.90715E+013 
3700 7.93526E+013 
3750 7.96238E+013 
3800 7.98854E+013 
3850 8.01375E+013 
3900 8.03802E+013 
3950 8.06137E+013 
4000 8.08383E+013 
4050 8.10539E+013 
4100 8.12609E+013 
4150 8.14592E+013 
4200 8.16492E+013 
4250 8.18308E+013 
4300 8.20044E+013 
4350 8.21699E+013 
4400 8.23275E+013 
4450 8.24774E+013 
4500 8.26197E+013 
4550 8.27545E+013 
4600 8.28819E+013 
4650 8.30021E+013 
4700 8.31152E+013 
4750 8.32213E+013 
4800 8.33205E+013 
4850 8.34129E+013 
4900 8.34987E+013 
4950 8.3578E+013 
5000 8.36508E+013 
5050 8.37173E+013 
5100 8.37775E+013 
5150 8.38317E+013 
5200 8.38798E+013 
5250 8.3922E+013 
5300 8.39584E+013 
5350 8.39891E+013 
5400 8.40141E+013 
5450 8.40337E+013 
5500 8.40478E+013 
5550 8.40565E+013 
5600 8.406E+013 
5650 8.40584E+013 
5700 8.40516E+013 
5750 8.40399E+013 
5800 8.40233E+013 
5850 8.40018E+013 
5900 8.39757E+013 
5950 8.39448E+013 
6000 8.39094E+013 
6050 8.38695E+013 
6100 8.38251E+013 
6150 8.37764E+013 
6200 8.37235E+013 
6250 8.36663E+013 
6300 8.3605E+013 
6350 8.35397E+013 
6400 8.34704E+013 
6450 8.33971E+013 
6500 8.33201E+013 
6550 8.32393E+013 
6600 8.31547E+013 
6650 8.30665E+013 
6700 8.29748E+013 
6750 8.28795E+013 
6800 8.27808E+013 
6850 8.26787E+013 
6900 8.25733E+013 
6950 8.24646E+013 
7000 8.23527E+013 
7050 8.22377E+013 
7100 8.21196E+013 
7150 8.19985E+013 
7200 8.18743E+013 
7250 8.17473E+013 
7300 8.16174E+013 
7350 8.14847E+013 
7400 8.13493E+013 
7450 8.12111E+013 
7500 8.10703E+013 
7550 8.09269E+013 
7600 8.0781E+013 
7650 8.06325E+013 
7700 8.04817E+013 
7750 8.03284E+013 
7800 8.01727E+013 
7850 8.00148E+013 
7900 7.98546E+013 
7950 7.96922E+013 
8000 7.95276E+013 
8050 7.93609E+013 
8100 7.91921E+013 
8150 7.90213E+013 
8200 7.88485E+013 
8250 7.86737E+013 
8300 7.84971E+013 
8350 7.83185E+013 
8400 7.81381E+013 
8450 7.7956E+013 
8500 7.77721E+013 
8550 7.75865E+013 
8600 7.73992E+013 
8650 7.72103E+013 
8700 7.70198E+013 
8750 7.68277E+013 
8800 7.66341E+013 
8850 7.6439E+013 
8900 7.62425E+013 
8950 7.60445E+013 
9000 7.58452E+013 
9050 7.56445E+013 
9100 7.54425E+013 
9150 7.52392E+013 
9200 7.50346E+013 
9250 7.48288E+013 
9300 7.46219E+013 
9350 7.44138E+013 
9400 7.42045E+013 
9450 7.39942E+013 
9500 7.37828E+013 
9550 7.35703E+013 
9600 7.33569E+013 
9650 7.31425E+013 
9700 7.29271E+013 
9750 7.27108E+013 
9800 7.24936E+013 
9850 7.22755E+013 
9900 7.20565E+013 
9950 7.18368E+013 
10000 7.16163E+013 
10050 7.1395E+013 
10100 7.11729E+013 
10150 7.09502E+013 
10200 7.07267E+013 
10250 7.05026E+013 
10300 7.02778E+013 
10350 7.00524E+013 
10400 6.98264E+013 
10450 6.95998E+013 
10500 6.93727E+013 
10550 6.91451E+013 
10600 6.89169E+013 
10650 6.86882E+013 
10700 6.84591E+013 
10750 6.82295E+013 
10800 6.79995E+013 
10850 6.77691E+013 
10900 6.75383E+013 
10950 6.73072E+013 
11000 6.70756E+013 
11050 6.68438E+013 
11100 6.66117E+013 
11150 6.63792E+013 
11200 6.61465E+013 
11250 6.59135E+013 
11300 6.56803E+013 
11350 6.54469E+013 
11400 6.52132E+013 
11450 6.49794E+013 
11500 6.47454E+013 
11550 6.45112E+013 
11600 6.42769E+013 
11650 6.40425E+013 
11700 6.3808E+013 
11750 6.35734E+013 
11800 6.33387E+013 
11850 6.31039E+013 
11900 6.28691E+013 
11950 6.26343E+013 
12000 6.23994E+013 
12050 6.21646E+013 
12100 6.19297E+013 
12150 6.16949E+013 
12200 6.14601E+013 
12250 6.12254E+013 
12300 6.09907E+013 
12350 6.07561E+013 
12400 6.05215E+013 
12450 6.02871E+013 
12500 6.00528E+013 
12550 5.98186E+013 
12600 5.95846E+013 
12650 5.93507E+013 
12700 5.91169E+013 
12750 5.88833E+013 
12800 5.86499E+013 
12850 5.84167E+013 
12900 5.81837E+013 
12950 5.79509E+013 
13000 5.77183E+013 
13050 5.7486E+013 
13100 5.72538E+013 
13150 5.7022E+013 
13200 5.67904E+013 
13250 5.65591E+013 
13300 5.6328E+013 
13350 5.60973E+013 
13400 5.58668E+013 
13450 5.56366E+013 
13500 5.54068E+013 
13550 5.51773E+013 
13600 5.49481E+013 
13650 5.47193E+013 
13700 5.44908E+013 
13750 5.42626E+013 
13800 5.40349E+013 
13850 5.38075E+013 
13900 5.35804E+013 
13950 5.33538E+013 
14000 5.31275E+013 
14050 5.29017E+013 
14100 5.26762E+013 
14150 5.24512E+013 
14200 5.22266E+013 
14250 5.20024E+013 
14300 5.17787E+013 
14350 5.15553E+013 
14400 5.13325E+013 
14450 5.11101E+013 
14500 5.08881E+013 
14550 5.06666E+013 
14600 5.04456E+013 
14650 5.0225E+013 
14700 5.0005E+013 
14750 4.97854E+013 
14800 4.95663E+013 
14850 4.93477E+013 
14900 4.91296E+013 
14950 4.8912E+013 
15000 4.86949E+013 
15050 4.84783E+013 
15100 4.82623E+013 
15150 4.80468E+013 
15200 4.78318E+013 
15250 4.76173E+013 
15300 4.74034E+013 
15350 4.719E+013 
15400 4.69771E+013 
15450 4.67648E+013 
15500 4.65531E+013 
15550 4.63419E+013 
15600 4.61313E+013 
15650 4.59212E+013 
15700 4.57117E+013 
15750 4.55028E+013 
15800 4.52944E+013 
15850 4.50867E+013 
15900 4.48795E+013 
15950 4.46729E+013 
16000 4.44668E+013 
16050 4.42614E+013 
16100 4.40566E+013 
16150 4.38523E+013 
16200 4.36486E+013 
16250 4.34456E+013 
16300 4.32431E+013 
16350 4.30413E+013 
16400 4.28401E+013 
16450 4.26394E+013 
16500 4.24394E+013 
16550 4.224E+013 
16600 4.20412E+013 
16650 4.1843E+013 
16700 4.16455E+013 
16750 4.14485E+013 
16800 4.12522E+013 
16850 4.10565E+013 
16900 4.08615E+013 
16950 4.0667E+013 
17000 4.04733E+013 
17050 4.02801E+013 
17100 4.00875E+013 
17150 3.98956E+013 
17200 3.97044E+013 
17250 3.95137E+013 
17300 3.93238E+013 
17350 3.91344E+013 
17400 3.89457E+013 
17450 3.87576E+013 
17500 3.85702E+013 
17550 3.83834E+013 
17600 3.81972E+013 
17650 3.80118E+013 
17700 3.78269E+013 
17750 3.76427E+013 
17800 3.74591E+013 
17850 3.72762E+013 
17900 3.7094E+013 
17950 3.69124E+013 
18000 3.67314E+013 
18050 3.65511E+013 
18100 3.63714E+013 
18150 3.61924E+013 
18200 3.60141E+013 
18250 3.58363E+013 
18300 3.56593E+013 
18350 3.54829E+013 
18400 3.53071E+013 
18450 3.5132E+013 
18500 3.49576E+013 
18550 3.47838E+013 
18600 3.46106E+013 
18650 3.44381E+013 
18700 3.42663E+013 
18750 3.40951E+013 
18800 3.39246E+013 
18850 3.37547E+013 
18900 3.35855E+013 
18950 3.34169E+013 
19000 3.3249E+013 
19050 3.30817E+013 
19100 3.2915E+013 
19150 3.27491E+013 
19200 3.25837E+013 
19250 3.24191E+013 
19300 3.2255E+013 
19350 3.20916E+013 
19400 3.19289E+013 
19450 3.17668E+013 
19500 3.16054E+013 
19550 3.14446E+013 
19600 3.12844E+013 
19650 3.11249E+013 
19700 3.09661E+013 
19750 3.08079E+013 
19800 3.06503E+013 
19850 3.04933E+013 
19900 3.03371E+013 
19950 3.01814E+013 
20000 3.00264E+013 
20050 2.9872E+013 
20100 2.97183E+013 
20150 2.95652E+013 
20200 2.94127E+013 
20250 2.92609E+013 
20300 2.91097E+013 
20350 2.89591E+013 
20400 2.88092E+013 
20450 2.86599E+013 
20500 2.85112E+013 
20550 2.83632E+013 
20600 2.82158E+013 
20650 2.8069E+013 
20700 2.79228E+013 
20750 2.77773E+013 
20800 2.76324E+013 
20850 2.74881E+013 
20900 2.73444E+013 
20950 2.72013E+013 
21000 2.70589E+013 
21050 2.69171E+013 
21100 2.67759E+013 
21150 2.66353E+013 
21200 2.64953E+013 
21250 2.6356E+013 
21300 2.62172E+013 
21350 2.60791E+013 
21400 2.59415E+013 
21450 2.58046E+013 
21500 2.56683E+013 
21550 2.55326E+013 
21600 2.53974E+013 
21650 2.52629E+013 
21700 2.5129E+013 
21750 2.49957E+013 
21800 2.48629E+013 
21850 2.47308E+013 
21900 2.45993E+013 
21950 2.44683E+013 
22000 2.4338E+013 
22050 2.42082E+013 
22100 2.4079E+013 
22150 2.39504E+013 
22200 2.38224E+013 
22250 2.3695E+013 
22300 2.35681E+013 
22350 2.34418E+013 
22400 2.33162E+013 
22450 2.3191E+013 
22500 2.30665E+013 
22550 2.29425E+013 
22600 2.28191E+013 
22650 2.26963E+013 
22700 2.25741E+013 
22750 2.24524E+013 
22800 2.23312E+013 
22850 2.22107E+013 
22900 2.20907E+013 
22950 2.19712E+013 
23000 2.18523E+013 
23050 2.1734E+013 
23100 2.16162E+013 
23150 2.1499E+013 
23200 2.13823E+013 
23250 2.12662E+013 
23300 2.11506E+013 
23350 2.10356E+013 
23400 2.09211E+013 
23450 2.08072E+013 
23500 2.06938E+013 
23550 2.05809E+013 
23600 2.04686E+013 
23650 2.03568E+013 
23700 2.02455E+013 
23750 2.01348E+013 
23800 2.00246E+013 
23850 1.9915E+013 
23900 1.98058E+013 
23950 1.96972E+013 
24000 1.95891E+013 
24050 1.94816E+013 
24100 1.93745E+013 
24150 1.9268E+013 
24200 1.9162E+013 
24250 1.90565E+013 
24300 1.89515E+013 
24350 1.8847E+013 
24400 1.8743E+013 
24450 1.86396E+013 
24500 1.85366E+013 
24550 1.84342E+013 
24600 1.83322E+013 
24650 1.82308E+013 
24700 1.81298E+013 
24750 1.80294E+013 
24800 1.79294E+013 
24850 1.78299E+013 
24900 1.7731E+013 
24950 1.76325E+013 
25000 1.75345E+013 
25050 1.7437E+013 
25100 1.73399E+013 
25150 1.72434E+013 
25200 1.71473E+013 
25250 1.70517E+013 
25300 1.69566E+013 
25350 1.6862E+013 
25400 1.67678E+013 
25450 1.66741E+013 
25500 1.65809E+013 
25550 1.64881E+013 
25600 1.63958E+013 
25650 1.6304E+013 
25700 1.62126E+013 
25750 1.61217E+013 
25800 1.60313E+013 
25850 1.59413E+013 
25900 1.58518E+013 
25950 1.57627E+013 
26000 1.5674E+013 
26050 1.55859E+013 
26100 1.54981E+013 
26150 1.54108E+013 
26200 1.5324E+013 
26250 1.52376E+013 
26300 1.51516E+013 
26350 1.50661E+013 
26400 1.4981E+013 
26450 1.48964E+013 
26500 1.48122E+013 
26550 1.47284E+013 
26600 1.4645E+013 
26650 1.45621E+013 
26700 1.44796E+013 
26750 1.43975E+013 
26800 1.43159E+013 
26850 1.42346E+013 
26900 1.41538E+013 
26950 1.40734E+013 
27000 1.39934E+013 
27050 1.39139E+013 
27100 1.38347E+013 
27150 1.3756E+013 
27200 1.36777E+013 
27250 1.35997E+013 
27300 1.35222E+013 
27350 1.34451E+013 
27400 1.33684E+013 
27450 1.32921E+013 
27500 1.32161E+013 
27550 1.31406E+013 
27600 1.30655E+013 
27650 1.29908E+013 
27700 1.29164E+013 
27750 1.28425E+013 
27800 1.27689E+013 
27850 1.26957E+013 
27900 1.26229E+013 
27950 1.25505E+013 
28000 1.24785E+013 
28050 1.24069E+013 
28100 1.23356E+013 
28150 1.22647E+013 
28200 1.21942E+013 
28250 1.2124E+013 
28300 1.20543E+013 
28350 1.19849E+013 
28400 1.19158E+013 
28450 1.18472E+013 
28500 1.17789E+013 
28550 1.17109E+013 
28600 1.16434E+013 
28650 1.15762E+013 
28700 1.15093E+013 
28750 1.14428E+013 
28800 1.13766E+013 
28850 1.13108E+013 
28900 1.12454E+013 
28950 1.11803E+013 
29000 1.11156E+013 
29050 1.10512E+013 
29100 1.09871E+013 
29150 1.09234E+013 
29200 1.08601E+013 
29250 1.0797E+013 
29300 1.07344E+013 
29350 1.0672E+013 
29400 1.061E+013 
29450 1.05483E+013 
29500 1.0487E+013 
29550 1.0426E+013 
29600 1.03653E+013 
29650 1.03049E+013 
29700 1.02449E+013 
29750 1.01852E+013 
29800 1.01258E+013 
29850 1.00668E+013 
29900 1.0008E+013 
29950 9.94963E+012 
30000 9.89154E+012 
30050 9.83375E+012 
30100 9.77629E+012 
30150 9.71913E+012 
30200 9.66229E+012 
30250 9.60576E+012 
30300 9.54954E+012 
30350 9.49362E+012 
30400 9.43801E+012 
30450 9.38271E+012 
30500 9.32771E+012 
30550 9.27301E+012 
30600 9.2186E+012 
30650 9.1645E+012 
30700 9.1107E+012 
30750 9.05719E+012 
30800 9.00397E+012 
30850 8.95105E+012 
30900 8.89842E+012 
30950 8.84607E+012 
31000 8.79402E+012 
31050 8.74225E+012 
31100 8.69077E+012 
31150 8.63958E+012 
31200 8.58866E+012 
31250 8.53803E+012 
31300 8.48768E+012 
31350 8.43761E+012 
31400 8.38781E+012 
31450 8.33829E+012 
31500 8.28905E+012 
31550 8.24008E+012 
31600 8.19138E+012 
31650 8.14295E+012 
31700 8.09479E+012 
31750 8.0469E+012 
31800 7.99927E+012 
31850 7.95191E+012 
31900 7.90482E+012 
31950 7.85798E+012 
32000 7.81141E+012 
32050 7.7651E+012 
32100 7.71905E+012 
32150 7.67325E+012 
32200 7.62771E+012 
32250 7.58243E+012 
32300 7.5374E+012 
32350 7.49262E+012 
32400 7.44809E+012 
32450 7.40381E+012 
32500 7.35978E+012 
32550 7.316E+012 
32600 7.27246E+012 
32650 7.22917E+012 
32700 7.18613E+012 
32750 7.14332E+012 
32800 7.10076E+012 
32850 7.05843E+012 
32900 7.01634E+012 
32950 6.9745E+012 
33000 6.93288E+012 
33050 6.89151E+012 
33100 6.85036E+012 
33150 6.80945E+012 
33200 6.76877E+012 
33250 6.72832E+012 
33300 6.6881E+012 
33350 6.64811E+012 
33400 6.60834E+012 
33450 6.5688E+012 
33500 6.52948E+012 
33550 6.49039E+012 
33600 6.45152E+012 
33650 6.41287E+012 
33700 6.37444E+012 
33750 6.33623E+012 
33800 6.29823E+012 
33850 6.26045E+012 
33900 6.22289E+012 
33950 6.18554E+012 
34000 6.14841E+012 
34050 6.11148E+012 
34100 6.07477E+012 
34150 6.03826E+012 
34200 6.00197E+012 
34250 5.96588E+012 
34300 5.93E+012 
34350 5.89432E+012 
34400 5.85885E+012 
34450 5.82358E+012 
34500 5.78852E+012 
34550 5.75365E+012 
34600 5.71898E+012 
34650 5.68452E+012 
34700 5.65025E+012 
34750 5.61618E+012 
34800 5.5823E+012 
34850 5.54862E+012 
34900 5.51513E+012 
34950 5.48183E+012 
35000 5.44873E+012 
35050 5.41582E+012 
35100 5.3831E+012 
35150 5.35056E+012 
35200 5.31821E+012 
35250 5.28605E+012 
35300 5.25408E+012 
35350 5.22229E+012 
35400 5.19068E+012 
35450 5.15926E+012 
35500 5.12801E+012 
35550 5.09695E+012 
35600 5.06607E+012 
35650 5.03537E+012 
35700 5.00484E+012 
35750 4.97449E+012 
35800 4.94432E+012 
35850 4.91432E+012 
35900 4.8845E+012 
35950 4.85485E+012 
36000 4.82537E+012 
36050 4.79607E+012 
36100 4.76693E+012 
36150 4.73796E+012 
36200 4.70916E+012 
36250 4.68053E+012 
36300 4.65207E+012 
36350 4.62377E+012 
36400 4.59564E+012 
36450 4.56767E+012 
36500 4.53986E+012 
36550 4.51221E+012 
36600 4.48473E+012 
36650 4.45741E+012 
36700 4.43025E+012 
36750 4.40324E+012 
36800 4.37639E+012 
36850 4.34971E+012 
36900 4.32317E+012 
36950 4.29679E+012 
37000 4.27057E+012 
37050 4.2445E+012 
37100 4.21858E+012 
37150 4.19282E+012 
37200 4.1672E+012 
37250 4.14174E+012 
37300 4.11642E+012 
37350 4.09126E+012 
37400 4.06624E+012 
37450 4.04137E+012 
37500 4.01664E+012 
37550 3.99206E+012 
37600 3.96763E+012 
37650 3.94333E+012 
37700 3.91918E+012 
37750 3.89518E+012 
37800 3.87131E+012 
37850 3.84759E+012 
37900 3.824E+012 
37950 3.80056E+012 
38000 3.77725E+012 
38050 3.75408E+012 
38100 3.73105E+012 
38150 3.70815E+012 
38200 3.68539E+012 
38250 3.66276E+012 
38300 3.64027E+012 
38350 3.61791E+012 
38400 3.59568E+012 
38450 3.57358E+012 
38500 3.55162E+012 
38550 3.52978E+012 
38600 3.50807E+012 
38650 3.4865E+012 
38700 3.46505E+012 
38750 3.44372E+012 
38800 3.42253E+012 
38850 3.40146E+012 
38900 3.38051E+012 
38950 3.35969E+012 
39000 3.33899E+012 
39050 3.31842E+012 
39100 3.29796E+012 
39150 3.27763E+012 
39200 3.25742E+012 
39250 3.23734E+012 
39300 3.21736E+012 
39350 3.19751E+012 
39400 3.17778E+012 
39450 3.15817E+012 
39500 3.13867E+012 
39550 3.11929E+012 
39600 3.10002E+012 
39650 3.08087E+012 
39700 3.06183E+012 
39750 3.04291E+012 
39800 3.0241E+012 
39850 3.0054E+012 
39900 2.98681E+012 
39950 2.96833E+012 
40000 2.94997E+012 
40050 2.93171E+012 
40100 2.91357E+012 
40150 2.89553E+012 
40200 2.8776E+012 
40250 2.85978E+012 
40300 2.84206E+012 
40350 2.82446E+012 
40400 2.80695E+012 
40450 2.78955E+012 
40500 2.77226E+012 
40550 2.75507E+012 
40600 2.73798E+012 
40650 2.72099E+012 
40700 2.70411E+012 
40750 2.68733E+012 
40800 2.67065E+012 
40850 2.65407E+012 
40900 2.63759E+012 
40950 2.62121E+012 
41000 2.60492E+012 
41050 2.58874E+012 
41100 2.57265E+012 
41150 2.55666E+012 
41200 2.54076E+012 
41250 2.52496E+012 
41300 2.50926E+012 
41350 2.49365E+012 
41400 2.47814E+012 
41450 2.46272E+012 
41500 2.44739E+012 
41550 2.43215E+012 
41600 2.41701E+012 
41650 2.40195E+012 
41700 2.38699E+012 
41750 2.37212E+012 
41800 2.35734E+012 
41850 2.34265E+012 
41900 2.32805E+012 
41950 2.31353E+012 
42000 2.2991E+012 
42050 2.28476E+012 
42100 2.27051E+012 
42150 2.25634E+012 
42200 2.24226E+012 
42250 2.22827E+012 
42300 2.21436E+012 
42350 2.20053E+012 
42400 2.18679E+012 
42450 2.17313E+012 
42500 2.15955E+012 
42550 2.14606E+012 
42600 2.13265E+012 
42650 2.11931E+012 
42700 2.10607E+012 
42750 2.0929E+012 
42800 2.07981E+012 
42850 2.0668E+012 
42900 2.05387E+012 
42950 2.04101E+012 
43000 2.02824E+012 
43050 2.01554E+012 
43100 2.00292E+012 
43150 1.99038E+012 
43200 1.97792E+012 
43250 1.96553E+012 
43300 1.95321E+012 
43350 1.94097E+012 
43400 1.92881E+012 
43450 1.91672E+012 
43500 1.9047E+012 
43550 1.89276E+012 
43600 1.88089E+012 
43650 1.86909E+012 
43700 1.85736E+012 
43750 1.84571E+012 
43800 1.83412E+012 
43850 1.82261E+012 
43900 1.81117E+012 
43950 1.7998E+012 
44000 1.78849E+012 
44050 1.77726E+012 
44100 1.76609E+012 
44150 1.755E+012 
44200 1.74397E+012 
44250 1.73301E+012 
44300 1.72211E+012 
44350 1.71128E+012 
44400 1.70052E+012 
44450 1.68983E+012 
44500 1.6792E+012 
44550 1.66863E+012 
44600 1.65813E+012 
44650 1.6477E+012 
44700 1.63733E+012 
44750 1.62702E+012 
44800 1.61677E+012 
44850 1.60659E+012 
44900 1.59647E+012 
44950 1.58641E+012 
45000 1.57642E+012 
45050 1.56648E+012 
45100 1.55661E+012 
45150 1.5468E+012 
45200 1.53705E+012 
45250 1.52736E+012 
45300 1.51772E+012 
45350 1.50815E+012 
45400 1.49864E+012 
45450 1.48918E+012 
45500 1.47978E+012 
45550 1.47044E+012 
45600 1.46116E+012 
45650 1.45193E+012 
45700 1.44277E+012 
45750 1.43365E+012 
45800 1.4246E+012 
45850 1.4156E+012 
45900 1.40666E+012 
45950 1.39777E+012 
46000 1.38893E+012 
46050 1.38015E+012 
46100 1.37143E+012 
46150 1.36275E+012 
46200 1.35414E+012 
46250 1.34557E+012 
46300 1.33706E+012 
46350 1.3286E+012 
46400 1.32019E+012 
46450 1.31184E+012 
46500 1.30353E+012 
46550 1.29528E+012 
46600 1.28708E+012 
46650 1.27893E+012 
46700 1.27083E+012 
46750 1.26278E+012 
46800 1.25478E+012 
46850 1.24683E+012 
46900 1.23893E+012 
46950 1.23108E+012 
47000 1.22327E+012 
47050 1.21552E+012 
47100 1.20781E+012 
47150 1.20015E+012 
47200 1.19254E+012 
47250 1.18497E+012 
47300 1.17746E+012 
47350 1.16998E+012 
47400 1.16256E+012 
47450 1.15518E+012 
47500 1.14785E+012 
47550 1.14056E+012 
47600 1.13332E+012 
47650 1.12612E+012 
47700 1.11897E+012 
47750 1.11186E+012 
47800 1.1048E+012 
47850 1.09777E+012 
47900 1.0908E+012 
47950 1.08386E+012 
48000 1.07697E+012 
48050 1.07013E+012 
48100 1.06332E+012 
48150 1.05656E+012 
48200 1.04984E+012 
48250 1.04316E+012 
48300 1.03653E+012 
48350 1.02993E+012 
48400 1.02338E+012 
48450 1.01686E+012 
48500 1.01039E+012 
48550 1.00396E+012 
48600 9.97567E+011 
48650 9.91214E+011 
48700 9.84901E+011 
48750 9.78628E+011 
48800 9.72394E+011 
48850 9.66198E+011 
48900 9.60041E+011 
48950 9.53923E+011 
49000 9.47843E+011 
49050 9.41801E+011 
49100 9.35796E+011 
49150 9.29829E+011 
49200 9.239E+011 
49250 9.18007E+011 
49300 9.12151E+011 
49350 9.06332E+011 
49400 9.00549E+011 
49450 8.94803E+011 
49500 8.89092E+011 
49550 8.83417E+011 
49600 8.77777E+011 
49650 8.72173E+011 
49700 8.66604E+011 
49750 8.6107E+011 
49800 8.5557E+011 
49850 8.50105E+011 
49900 8.44674E+011 
49950 8.39277E+011 
50000 8.33914E+011 
50050 8.28585E+011 
50100 8.23289E+011 
50150 8.18026E+011 
50200 8.12796E+011 
50250 8.07599E+011 
50300 8.02434E+011 
50350 7.97302E+011 
50400 7.92202E+011 
50450 7.87134E+011 
50500 7.82098E+011 
50550 7.77094E+011 
50600 7.72121E+011 
50650 7.67179E+011 
50700 7.62268E+011 
50750 7.57388E+011 
50800 7.52539E+011 
50850 7.4772E+011 
50900 7.42931E+011 
50950 7.38173E+011 
51000 7.33444E+011 
51050 7.28745E+011 
51100 7.24076E+011 
51150 7.19436E+011 
51200 7.14825E+011 
51250 7.10244E+011 
51300 7.05691E+011 
51350 7.01167E+011 
51400 6.96671E+011 
51450 6.92203E+011 
51500 6.87764E+011 
51550 6.83353E+011 
51600 6.78969E+011 
51650 6.74613E+011 
51700 6.70285E+011 
51750 6.65984E+011 
51800 6.61709E+011 
51850 6.57462E+011 
51900 6.53242E+011 
51950 6.49048E+011 
52000 6.44881E+011 
52050 6.4074E+011 
52100 6.36625E+011 
52150 6.32536E+011 
52200 6.28473E+011 
52250 6.24435E+011 
52300 6.20423E+011 
52350 6.16436E+011 
52400 6.12475E+011 
52450 6.08538E+011 
52500 6.04627E+011 
52550 6.0074E+011 
52600 5.96877E+011 
52650 5.93039E+011 
52700 5.89226E+011 
52750 5.85436E+011 
52800 5.8167E+011 
52850 5.77929E+011 
52900 5.7421E+011 
52950 5.70516E+011 
53000 5.66845E+011 
53050 5.63197E+011 
53100 5.59571E+011 
53150 5.55969E+011 
53200 5.5239E+011 
53250 5.48834E+011 
53300 5.453E+011 
53350 5.41788E+011 
53400 5.38299E+011 
53450 5.34831E+011 
53500 5.31386E+011 
53550 5.27962E+011 
53600 5.2456E+011 
53650 5.2118E+011 
53700 5.17821E+011 
53750 5.14484E+011 
53800 5.11167E+011 
53850 5.07872E+011 
53900 5.04598E+011 
53950 5.01344E+011 
54000 4.98111E+011 
54050 4.94898E+011 
54100 4.91706E+011 
54150 4.88534E+011 
54200 4.85382E+011 
54250 4.82251E+011 
54300 4.79139E+011 
54350 4.76047E+011 
54400 4.72974E+011 
54450 4.69921E+011 
54500 4.66888E+011 
54550 4.63874E+011 
54600 4.60879E+011 
54650 4.57902E+011 
54700 4.54945E+011 
54750 4.52007E+011 
54800 4.49087E+011 
54850 4.46186E+011 
54900 4.43304E+011 
54950 4.40439E+011 
55000 4.37593E+011 
55050 4.34765E+011 
55100 4.31955E+011 
55150 4.29163E+011 
55200 4.26389E+011 
55250 4.23632E+011 
55300 4.20893E+011 
55350 4.18171E+011 
55400 4.15467E+011 
55450 4.1278E+011 
55500 4.1011E+011 
55550 4.07457E+011 
55600 4.04821E+011 
55650 4.02202E+011 
55700 3.99599E+011 
55750 3.97013E+011 
55800 3.94443E+011 
55850 3.9189E+011 
55900 3.89353E+011 
55950 3.86833E+011 
56000 3.84328E+011 
56050 3.8184E+011 
56100 3.79367E+011 
56150 3.7691E+011 
56200 3.74469E+011 
56250 3.72043E+011 
56300 3.69633E+011 
56350 3.67238E+011 
56400 3.64858E+011 
56450 3.62494E+011 
56500 3.60145E+011 
56550 3.57811E+011 
56600 3.55491E+011 
56650 3.53187E+011 
56700 3.50897E+011 
56750 3.48622E+011 
56800 3.46361E+011 
56850 3.44115E+011 
56900 3.41883E+011 
56950 3.39666E+011 
57000 3.37462E+011 
57050 3.35273E+011 
57100 3.33098E+011 
57150 3.30937E+011 
57200 3.28789E+011 
57250 3.26655E+011 
57300 3.24535E+011 
57350 3.22429E+011 
57400 3.20336E+011 
57450 3.18256E+011 
57500 3.1619E+011 
57550 3.14137E+011 
57600 3.12097E+011 
57650 3.1007E+011 
57700 3.08056E+011 
57750 3.06055E+011 
57800 3.04067E+011 
57850 3.02091E+011 
57900 3.00129E+011 
57950 2.98178E+011 
58000 2.96241E+011 
58050 2.94315E+011 
58100 2.92402E+011 
58150 2.90502E+011 
58200 2.88613E+011 
58250 2.86737E+011 
58300 2.84873E+011 
58350 2.8302E+011 
58400 2.8118E+011 
58450 2.79351E+011 
58500 2.77534E+011 
58550 2.75729E+011 
58600 2.73935E+011 
58650 2.72153E+011 
58700 2.70382E+011 
58750 2.68623E+011 
58800 2.66875E+011 
58850 2.65138E+011 
58900 2.63412E+011 
58950 2.61698E+011 
59000 2.59994E+011 
59050 2.58301E+011 
59100 2.5662E+011 
59150 2.54949E+011 
59200 2.53289E+011 
59250 2.51639E+011 
59300 2.5E+011 
59350 2.48372E+011 
59400 2.46754E+011 
59450 2.45146E+011 
59500 2.43549E+011 
59550 2.41962E+011 
59600 2.40386E+011 
59650 2.38819E+011 
59700 2.37263E+011 
59750 2.35716E+011 
59800 2.3418E+011 
59850 2.32653E+011 
59900 2.31136E+011 
59950 2.29629E+011 
60000 2.28132E+011 
60050 2.26644E+011 
60100 2.25166E+011 
60150 2.23698E+011 
60200 2.22239E+011 
60250 2.20789E+011 
60300 2.19349E+011 
60350 2.17917E+011 
60400 2.16496E+011 
60450 2.15083E+011 
60500 2.13679E+011 
60550 2.12285E+011 
60600 2.10899E+011 
60650 2.09523E+011 
60700 2.08155E+011 
60750 2.06796E+011 
60800 2.05446E+011 
60850 2.04104E+011 
60900 2.02772E+011 
60950 2.01447E+011 
61000 2.00132E+011 
61050 1.98825E+011 
61100 1.97526E+011 
61150 1.96235E+011 
61200 1.94953E+011 
61250 1.9368E+011 
61300 1.92414E+011 
61350 1.91157E+011 
61400 1.89908E+011 
61450 1.88667E+011 
61500 1.87434E+011 
61550 1.86208E+011 
61600 1.84991E+011 
61650 1.83782E+011 
61700 1.8258E+011 
61750 1.81386E+011 
61800 1.802E+011 
61850 1.79022E+011 
61900 1.77851E+011 
61950 1.76688E+011 
62000 1.75532E+011 
62050 1.74384E+011 
62100 1.73243E+011 
62150 1.7211E+011 
62200 1.70984E+011 
62250 1.69865E+011 
62300 1.68753E+011 
62350 1.67649E+011 
62400 1.66551E+011 
62450 1.65461E+011 
62500 1.64378E+011 
62550 1.63302E+011 
62600 1.62233E+011 
62650 1.61171E+011 
62700 1.60116E+011 
62750 1.59067E+011 
62800 1.58025E+011 
62850 1.5699E+011 
62900 1.55962E+011 
62950 1.54941E+011 
63000 1.53926E+011 
63050 1.52917E+011 
63100 1.51915E+011 
63150 1.5092E+011 
63200 1.49931E+011 
63250 1.48949E+011 
63300 1.47972E+011 
63350 1.47003E+011 
63400 1.46039E+011 
63450 1.45082E+011 
63500 1.44131E+011 
63550 1.43186E+011 
63600 1.42247E+011 
63650 1.41314E+011 
63700 1.40388E+011 
63750 1.39467E+011 
63800 1.38552E+011 
63850 1.37644E+011 
63900 1.36741E+011 
63950 1.35844E+011 
64000 1.34953E+011 
64050 1.34068E+011 
64100 1.33188E+011 
64150 1.32314E+011 
64200 1.31446E+011 
64250 1.30583E+011 
64300 1.29726E+011 
64350 1.28875E+011 
64400 1.28029E+011 
64450 1.27189E+011 
64500 1.26354E+011 
64550 1.25524E+011 
64600 1.247E+011 
64650 1.23881E+011 
64700 1.23068E+011 
64750 1.2226E+011 
64800 1.21457E+011 
64850 1.20659E+011 
64900 1.19866E+011 
64950 1.19079E+011 
65000 1.18297E+011 
65050 1.1752E+011 
65100 1.16748E+011 
65150 1.15981E+011 
65200 1.15219E+011 
65250 1.14461E+011 
65300 1.13709E+011 
65350 1.12962E+011 
65400 1.12219E+011 
65450 1.11482E+011 
65500 1.10749E+011 
65550 1.10021E+011 
65600 1.09298E+011 
65650 1.08579E+011 
65700 1.07865E+011 
65750 1.07156E+011 
65800 1.06451E+011 
65850 1.05751E+011 
65900 1.05056E+011 
65950 1.04365E+011 
66000 1.03678E+011 
66050 1.02996E+011 
66100 1.02319E+011 
66150 1.01646E+011 
66200 1.00977E+011 
66250 1.00312E+011 
66300 9.96523E+010 
66350 9.89965E+010 
66400 9.8345E+010 
66450 9.76977E+010 
66500 9.70547E+010 
66550 9.64159E+010 
66600 9.57812E+010 
66650 9.51506E+010 
66700 9.45242E+010 
66750 9.39018E+010 
66800 9.32836E+010 
66850 9.26693E+010 
66900 9.2059E+010 
66950 9.14528E+010 
67000 9.08505E+010 
67050 9.02521E+010 
67100 8.96576E+010 
67150 8.9067E+010 
67200 8.84803E+010 
67250 8.78973E+010 
67300 8.73182E+010 
67350 8.67429E+010 
67400 8.61713E+010 
67450 8.56035E+010 
67500 8.50393E+010 
67550 8.44789E+010 
67600 8.39221E+010 
67650 8.33689E+010 
67700 8.28194E+010 
67750 8.22734E+010 
67800 8.1731E+010 
67850 8.11922E+010 
67900 8.06568E+010 
67950 8.0125E+010 
68000 7.95966E+010 
68050 7.90717E+010 
68100 7.85503E+010 
68150 7.80322E+010 
68200 7.75175E+010 
68250 7.70062E+010 
68300 7.64982E+010 
68350 7.59936E+010 
68400 7.54922E+010 
68450 7.49941E+010 
68500 7.44993E+010 
68550 7.40077E+010 
68600 7.35194E+010 
68650 7.30342E+010 
68700 7.25522E+010 
68750 7.20733E+010 
68800 7.15976E+010 
68850 7.1125E+010 
68900 7.06555E+010 
68950 7.01891E+010 
69000 6.97257E+010 
69050 6.92653E+010 
69100 6.8808E+010 
69150 6.83536E+010 
69200 6.79023E+010 
69250 6.74538E+010 
69300 6.70083E+010 
69350 6.65658E+010 
69400 6.61261E+010 
69450 6.56893E+010 
69500 6.52554E+010 
69550 6.48243E+010 
69600 6.4396E+010 
69650 6.39706E+010 
69700 6.35479E+010 
69750 6.3128E+010 
69800 6.27108E+010 
69850 6.22964E+010 
69900 6.18847E+010 
69950 6.14757E+010 
70000 6.10694E+010 
70050 6.06657E+010 
70100 6.02647E+010 
70150 5.98663E+010 
70200 5.94705E+010 
70250 5.90773E+010 
70300 5.86867E+010 
70350 5.82987E+010 
70400 5.79132E+010 
70450 5.75302E+010 
70500 5.71498E+010 
70550 5.67718E+010 
70600 5.63963E+010 
70650 5.60233E+010 
70700 5.56527E+010 
70750 5.52846E+010 
70800 5.49188E+010 
70850 5.45555E+010 
70900 5.41945E+010 
70950 5.3836E+010 
71000 5.34797E+010 
71050 5.31258E+010 
71100 5.27743E+010 
71150 5.2425E+010 
71200 5.20781E+010 
71250 5.17334E+010 
71300 5.1391E+010 
71350 5.10508E+010 
71400 5.07128E+010 
71450 5.03771E+010 
71500 5.00436E+010 
71550 4.97123E+010 
71600 4.93831E+010 
71650 4.90561E+010 
71700 4.87313E+010 
71750 4.84086E+010 
71800 4.8088E+010 
71850 4.77695E+010 
71900 4.74531E+010 
71950 4.71388E+010 
72000 4.68265E+010 
72050 4.65164E+010 
72100 4.62082E+010 
72150 4.59021E+010 
72200 4.5598E+010 
72250 4.52958E+010 
72300 4.49957E+010 
72350 4.46976E+010 
72400 4.44013E+010 
72450 4.41071E+010 
72500 4.38148E+010 
72550 4.35244E+010 
72600 4.32359E+010 
72650 4.29493E+010 
72700 4.26646E+010 
72750 4.23818E+010 
72800 4.21008E+010 
72850 4.18217E+010 
72900 4.15444E+010 
72950 4.1269E+010 
73000 4.09953E+010 
73050 4.07235E+010 
73100 4.04534E+010 
73150 4.01851E+010 
73200 3.99186E+010 
73250 3.96539E+010 
73300 3.93909E+010 
73350 3.91296E+010 
73400 3.887E+010 
73450 3.86121E+010 
73500 3.8356E+010 
73550 3.81015E+010 
73600 3.78487E+010 
73650 3.75976E+010 
73700 3.73481E+010 
73750 3.71003E+010 
73800 3.68541E+010 
73850 3.66095E+010 
73900 3.63665E+010 
73950 3.61252E+010 
74000 3.58854E+010 
74050 3.56472E+010 
74100 3.54106E+010 
74150 3.51755E+010 
74200 3.4942E+010 
74250 3.471E+010 
74300 3.44795E+010 
74350 3.42506E+010 
74400 3.40232E+010 
74450 3.37972E+010 
74500 3.35728E+010 
74550 3.33498E+010 
74600 3.31284E+010 
74650 3.29083E+010 
74700 3.26898E+010 
74750 3.24726E+010 
74800 3.22569E+010 
74850 3.20426E+010 
74900 3.18298E+010 
74950 3.16183E+010 
75000 3.14083E+010 
75050 3.11996E+010 
75100 3.09923E+010 
75150 3.07863E+010 
75200 3.05817E+010 
75250 3.03785E+010 
75300 3.01766E+010 
75350 2.99761E+010 
75400 2.97768E+010 
75450 2.95789E+010 
75500 2.93823E+010 
75550 2.9187E+010 
75600 2.8993E+010 
75650 2.88002E+010 
75700 2.86088E+010 
75750 2.84186E+010 
75800 2.82296E+010 
75850 2.80419E+010 
75900 2.78554E+010 
75950 2.76702E+010 
76000 2.74862E+010 
76050 2.73034E+010 
76100 2.71218E+010 
76150 2.69414E+010 
76200 2.67622E+010 
76250 2.65842E+010 
76300 2.64074E+010 
76350 2.62317E+010 
76400 2.60572E+010 
76450 2.58839E+010 
76500 2.57117E+010 
76550 2.55406E+010 
76600 2.53707E+010 
76650 2.52018E+010 
76700 2.50341E+010 
76750 2.48675E+010 
76800 2.47021E+010 
76850 2.45376E+010 
76900 2.43743E+010 
76950 2.42121E+010 
77000 2.4051E+010 
77050 2.38909E+010 
77100 2.37318E+010 
77150 2.35738E+010 
77200 2.34169E+010 
77250 2.3261E+010 
77300 2.31061E+010 
77350 2.29523E+010 
77400 2.27995E+010 
77450 2.26477E+010 
77500 2.24968E+010 
77550 2.2347E+010 
77600 2.21982E+010 
77650 2.20504E+010 
77700 2.19035E+010 
77750 2.17576E+010 
77800 2.16127E+010 
77850 2.14687E+010 
77900 2.13257E+010 
77950 2.11836E+010 
78000 2.10425E+010 
78050 2.09023E+010 
78100 2.07631E+010 
78150 2.06247E+010 
78200 2.04873E+010 
78250 2.03508E+010 
78300 2.02152E+010 
78350 2.00805E+010 
78400 1.99467E+010 
78450 1.98137E+010 
78500 1.96817E+010 
78550 1.95505E+010 
78600 1.94202E+010 
78650 1.92907E+010 
78700 1.91621E+010 
78750 1.90344E+010 
78800 1.89075E+010 
78850 1.87815E+010 
78900 1.86562E+010 
78950 1.85319E+010 
79000 1.84083E+010 
79050 1.82855E+010 
79100 1.81636E+010 
79150 1.80425E+010 
79200 1.79222E+010 
79250 1.78026E+010 
79300 1.76839E+010 
79350 1.7566E+010 
79400 1.74488E+010 
79450 1.73324E+010 
79500 1.72168E+010 
79550 1.7102E+010 
79600 1.69879E+010 
79650 1.68746E+010 
79700 1.6762E+010 
79750 1.66501E+010 
79800 1.6539E+010 
79850 1.64287E+010 
79900 1.63191E+010 
79950 1.62102E+010 
80000 1.6102E+010 
80050 1.59946E+010 
80100 1.58878E+010 
80150 1.57818E+010 
80200 1.56764E+010 
80250 1.55718E+010 
80300 1.54679E+010 
80350 1.53646E+010 
80400 1.52621E+010 
80450 1.51602E+010 
80500 1.5059E+010 
80550 1.49584E+010 
80600 1.48586E+010 
80650 1.47594E+010 
80700 1.46608E+010 
80750 1.45629E+010 
80800 1.44657E+010 
80850 1.43691E+010 
80900 1.42731E+010 
80950 1.41778E+010 
81000 1.40831E+010 
81050 1.39891E+010 
81100 1.38957E+010 
81150 1.38028E+010 
81200 1.37107E+010 
81250 1.36191E+010 
81300 1.35281E+010 
81350 1.34377E+010 
81400 1.33479E+010 
81450 1.32588E+010 
81500 1.31702E+010 
81550 1.30822E+010 
81600 1.29948E+010 
81650 1.2908E+010 
81700 1.28217E+010 
81750 1.2736E+010 
81800 1.26509E+010 
81850 1.25664E+010 
81900 1.24824E+010 
81950 1.2399E+010 
82000 1.23161E+010 
82050 1.22338E+010 
82100 1.2152E+010 
82150 1.20708E+010 
82200 1.19901E+010 
82250 1.19099E+010 
82300 1.18303E+010 
82350 1.17512E+010 
82400 1.16727E+010 
82450 1.15946E+010 
82500 1.15171E+010 
82550 1.14401E+010 
82600 1.13636E+010 
82650 1.12876E+010 
82700 1.12121E+010 
82750 1.11371E+010 
82800 1.10627E+010 
82850 1.09887E+010 
82900 1.09152E+010 
82950 1.08422E+010 
83000 1.07697E+010 
83050 1.06976E+010 
83100 1.06261E+010 
83150 1.0555E+010 
83200 1.04844E+010 
83250 1.04142E+010 
83300 1.03446E+010 
83350 1.02754E+010 
83400 1.02066E+010 
83450 1.01383E+010 
83500 1.00705E+010 
83550 1.00031E+010 
83600 9.93616E+009 
83650 9.86967E+009 
83700 9.80363E+009 
83750 9.73802E+009 
83800 9.67285E+009 
83850 9.60811E+009 
83900 9.5438E+009 
83950 9.47992E+009 
84000 9.41647E+009 
84050 9.35344E+009 
84100 9.29082E+009 
84150 9.22863E+009 
84200 9.16685E+009 
84250 9.10548E+009 
84300 9.04452E+009 
84350 8.98396E+009 
84400 8.92381E+009 
84450 8.86406E+009 
84500 8.80471E+009 
84550 8.74575E+009 
84600 8.68719E+009 
84650 8.62901E+009 
84700 8.57123E+009 
84750 8.51382E+009 
84800 8.45681E+009 
84850 8.40017E+009 
84900 8.3439E+009 
84950 8.28802E+009 
85000 8.2325E+009 
85050 8.17736E+009 
85100 8.12258E+009 
85150 8.06817E+009 
85200 8.01412E+009 
85250 7.96043E+009 
85300 7.9071E+009 
85350 7.85412E+009 
85400 7.8015E+009 
85450 7.74922E+009 
85500 7.6973E+009 
85550 7.64572E+009 
85600 7.59449E+009 
85650 7.5436E+009 
85700 7.49304E+009 
85750 7.44283E+009 
85800 7.39295E+009 
85850 7.3434E+009 
85900 7.29418E+009 
85950 7.24529E+009 
86000 7.19672E+009 
86050 7.14848E+009 
86100 7.10057E+009 
86150 7.05297E+009 
86200 7.00569E+009 
86250 6.95872E+009 
86300 6.91207E+009 
86350 6.86573E+009 
86400 6.8197E+009 
86450 6.77397E+009 
86500 6.72855E+009 
86550 6.68343E+009 
86600 6.63862E+009 
86650 6.5941E+009 
86700 6.54988E+009 
86750 6.50596E+009 
86800 6.46232E+009 
86850 6.41898E+009 
86900 6.37593E+009 
86950 6.33317E+009 
87000 6.29069E+009 
87050 6.2485E+009 
87100 6.20658E+009 
87150 6.16495E+009 
87200 6.12359E+009 
87250 6.08251E+009 
87300 6.04171E+009 
87350 6.00118E+009 
87400 5.96091E+009 
87450 5.92092E+009 
87500 5.88119E+009 
87550 5.84173E+009 
87600 5.80253E+009 
87650 5.7636E+009 
87700 5.72492E+009 
87750 5.68651E+009 
87800 5.64835E+009 
87850 5.61044E+009 
87900 5.57279E+009 
87950 5.53539E+009 
88000 5.49823E+009 
88050 5.46133E+009 
88100 5.42467E+009 
88150 5.38826E+009 
88200 5.35209E+009 
88250 5.31617E+009 
88300 5.28048E+009 
88350 5.24503E+009 
88400 5.20982E+009 
88450 5.17484E+009 
88500 5.1401E+009 
88550 5.10559E+009 
88600 5.07131E+009 
88650 5.03726E+009 
88700 5.00344E+009 
88750 4.96984E+009 
88800 4.93647E+009 
88850 4.90332E+009 
88900 4.87039E+009 
88950 4.83768E+009 
89000 4.80519E+009 
89050 4.77292E+009 
89100 4.74086E+009 
89150 4.70902E+009 
89200 4.67739E+009 
89250 4.64597E+009 
89300 4.61477E+009 
89350 4.58377E+009 
89400 4.55298E+009 
89450 4.52239E+009 
89500 4.49201E+009 
89550 4.46183E+009 
89600 4.43186E+009 
89650 4.40208E+009 
89700 4.3725E+009 
89750 4.34312E+009 
89800 4.31394E+009 
89850 4.28496E+009 
89900 4.25616E+009 
89950 4.22756E+009 
90000 4.19915E+009 
90050 4.17093E+009 
90100 4.1429E+009 
90150 4.11506E+009 
90200 4.08741E+009 
90250 4.05993E+009 
90300 4.03265E+009 
90350 4.00554E+009 
90400 3.97862E+009 
90450 3.95187E+009 
90500 3.92531E+009 
90550 3.89892E+009 
90600 3.87271E+009 
90650 3.84668E+009 
90700 3.82082E+009 
90750 3.79513E+009 
90800 3.76962E+009 
90850 3.74427E+009 
90900 3.7191E+009 
90950 3.69409E+009 
91000 3.66925E+009 
91050 3.64458E+009 
91100 3.62007E+009 
91150 3.59573E+009 
91200 3.57155E+009 
91250 3.54753E+009 
91300 3.52367E+009 
91350 3.49997E+009 
91400 3.47643E+009 
91450 3.45305E+009 
91500 3.42983E+009 
91550 3.40676E+009 
91600 3.38384E+009 
91650 3.36108E+009 
91700 3.33847E+009 
91750 3.31601E+009 
91800 3.29371E+009 
91850 3.27155E+009 
91900 3.24954E+009 
91950 3.22768E+009 
92000 3.20596E+009 
92050 3.18439E+009 
92100 3.16297E+009 
92150 3.14169E+009 
92200 3.12055E+009 
92250 3.09955E+009 
92300 3.07869E+009 
92350 3.05798E+009 
92400 3.0374E+009 
92450 3.01696E+009 
92500 2.99665E+009 
92550 2.97649E+009 
92600 2.95645E+009 
92650 2.93656E+009 
92700 2.91679E+009 
92750 2.89716E+009 
92800 2.87766E+009 
92850 2.85829E+009 
92900 2.83905E+009 
92950 2.81994E+009 
93000 2.80095E+009 
93050 2.7821E+009 
93100 2.76337E+009 
93150 2.74477E+009 
93200 2.72629E+009 
93250 2.70793E+009 
93300 2.6897E+009 
93350 2.67159E+009 
93400 2.6536E+009 
93450 2.63574E+009 
93500 2.61799E+009 
93550 2.60036E+009 
93600 2.58285E+009 
93650 2.56546E+009 
93700 2.54818E+009 
93750 2.53102E+009 
93800 2.51397E+009 
93850 2.49704E+009 
93900 2.48023E+009 
93950 2.46352E+009 
94000 2.44693E+009 
94050 2.43045E+009 
94100 2.41408E+009 
94150 2.39782E+009 
94200 2.38166E+009 
94250 2.36562E+009 
94300 2.34968E+009 
94350 2.33385E+009 
94400 2.31813E+009 
94450 2.30251E+009 
94500 2.287E+009 
94550 2.2716E+009 
94600 2.25629E+009 
94650 2.24109E+009 
94700 2.22599E+009 
94750 2.21099E+009 
94800 2.19609E+009 
94850 2.18129E+009 
94900 2.16659E+009 
94950 2.15199E+009 
95000 2.13749E+009 
95050 2.12309E+009 
95100 2.10878E+009 
95150 2.09457E+009 
95200 2.08045E+009 
95250 2.06643E+009 
95300 2.0525E+009 
95350 2.03867E+009 
95400 2.02493E+009 
95450 2.01128E+009 
95500 1.99772E+009 
95550 1.98425E+009 
95600 1.97088E+009 
95650 1.95759E+009 
95700 1.94439E+009 
95750 1.93129E+009 
95800 1.91826E+009 
95850 1.90533E+009 
95900 1.89249E+009 
95950 1.87973E+009 
96000 1.86705E+009 
96050 1.85447E+009 
96100 1.84196E+009 
96150 1.82954E+009 
96200 1.8172E+009 
96250 1.80495E+009 
96300 1.79278E+009 
96350 1.78069E+009 
96400 1.76868E+009 
96450 1.75675E+009 
96500 1.7449E+009 
96550 1.73314E+009 
96600 1.72145E+009 
96650 1.70984E+009 
96700 1.6983E+009 
96750 1.68685E+009 
96800 1.67547E+009 
96850 1.66417E+009 
96900 1.65294E+009 
96950 1.64179E+009 
97000 1.63072E+009 
97050 1.61972E+009 
97100 1.60879E+009 
97150 1.59794E+009 
97200 1.58716E+009 
97250 1.57645E+009 
97300 1.56581E+009 
97350 1.55525E+009 
97400 1.54475E+009 
97450 1.53433E+009 
97500 1.52398E+009 
97550 1.51369E+009 
97600 1.50348E+009 
97650 1.49334E+009 
97700 1.48326E+009 
97750 1.47325E+009 
97800 1.46331E+009 
97850 1.45343E+009 
97900 1.44362E+009 
97950 1.43388E+009 
98000 1.4242E+009 
98050 1.41459E+009 
98100 1.40504E+009 
98150 1.39556E+009 
98200 1.38614E+009 
98250 1.37678E+009 
98300 1.36749E+009 
98350 1.35826E+009 
98400 1.34909E+009 
98450 1.33998E+009 
98500 1.33094E+009 
98550 1.32195E+009 
98600 1.31303E+009 
98650 1.30416E+009 
98700 1.29536E+009 
98750 1.28661E+009 
98800 1.27792E+009 
98850 1.2693E+009 
98900 1.26073E+009 
98950 1.25221E+009 
99000 1.24376E+009 
99050 1.23536E+009 
99100 1.22702E+009 
99150 1.21873E+009 
99200 1.2105E+009 
99250 1.20233E+009 
99300 1.19421E+009 
99350 1.18614E+009 
99400 1.17813E+009 
99450 1.17017E+009 
99500 1.16227E+009 
99550 1.15442E+009 
99600 1.14662E+009 
99650 1.13888E+009 
99700 1.13119E+009 
99750 1.12355E+009 
99800 1.11596E+009 
99850 1.10842E+009 
99900 1.10093E+009 
99950 1.09349E+009 
100000 1.08611E+009 
