#F U:\Beamline I20\I20-2_EDE\Wigglers\xop\83mm-small-wiggler\EDE wiggler\1p2T-300mA-0p12x1p6mrad.dat
#C I20EDE 1.2T 300mA 0.12x1.6mrad
#S 1 File written by xplot on Tue Dec 07 18:19:19 2010
#N 2
#L    Energy [eV]  Flux [ph/s/0.1%bw]
50 1.12928E+013 
100 1.79107E+013 
150 2.34346E+013 
200 2.83348E+013 
250 3.28065E+013 
300 3.69549E+013 
350 4.08445E+013 
400 4.45191E+013 
450 4.80096E+013 
500 5.13394E+013 
550 5.45264E+013 
600 5.75848E+013 
650 6.05263E+013 
700 6.33604E+013 
750 6.60953E+013 
800 6.87377E+013 
850 7.12936E+013 
900 7.37682E+013 
950 7.6166E+013 
1000 7.8491E+013 
1050 8.07469E+013 
1100 8.29368E+013 
1150 8.50637E+013 
1200 8.71303E+013 
1250 8.91389E+013 
1300 9.10918E+013 
1350 9.29911E+013 
1400 9.48386E+013 
1450 9.66362E+013 
1500 9.83854E+013 
1550 1.00088E+014 
1600 1.01745E+014 
1650 1.03358E+014 
1700 1.04928E+014 
1750 1.06457E+014 
1800 1.07946E+014 
1850 1.09395E+014 
1900 1.10806E+014 
1950 1.12179E+014 
2000 1.13517E+014 
2050 1.14819E+014 
2100 1.16086E+014 
2150 1.17319E+014 
2200 1.1852E+014 
2250 1.19688E+014 
2300 1.20825E+014 
2350 1.21931E+014 
2400 1.23006E+014 
2450 1.24053E+014 
2500 1.2507E+014 
2550 1.26059E+014 
2600 1.27021E+014 
2650 1.27955E+014 
2700 1.28863E+014 
2750 1.29744E+014 
2800 1.30601E+014 
2850 1.31432E+014 
2900 1.32239E+014 
2950 1.33021E+014 
3000 1.3378E+014 
3050 1.34516E+014 
3100 1.3523E+014 
3150 1.3592E+014 
3200 1.3659E+014 
3250 1.37237E+014 
3300 1.37864E+014 
3350 1.3847E+014 
3400 1.39055E+014 
3450 1.39621E+014 
3500 1.40167E+014 
3550 1.40694E+014 
3600 1.41202E+014 
3650 1.41692E+014 
3700 1.42163E+014 
3750 1.42617E+014 
3800 1.43053E+014 
3850 1.43472E+014 
3900 1.43873E+014 
3950 1.44258E+014 
4000 1.44627E+014 
4050 1.4498E+014 
4100 1.45317E+014 
4150 1.45638E+014 
4200 1.45944E+014 
4250 1.46235E+014 
4300 1.46512E+014 
4350 1.46774E+014 
4400 1.47021E+014 
4450 1.47255E+014 
4500 1.47475E+014 
4550 1.47682E+014 
4600 1.47875E+014 
4650 1.48055E+014 
4700 1.48223E+014 
4750 1.48378E+014 
4800 1.4852E+014 
4850 1.48651E+014 
4900 1.48769E+014 
4950 1.48876E+014 
5000 1.48971E+014 
5050 1.49055E+014 
5100 1.49127E+014 
5150 1.49189E+014 
5200 1.4924E+014 
5250 1.4928E+014 
5300 1.49311E+014 
5350 1.4933E+014 
5400 1.4934E+014 
5450 1.4934E+014 
5500 1.4933E+014 
5550 1.49311E+014 
5600 1.49283E+014 
5650 1.49245E+014 
5700 1.49198E+014 
5750 1.49143E+014 
5800 1.49078E+014 
5850 1.49005E+014 
5900 1.48924E+014 
5950 1.48835E+014 
6000 1.48737E+014 
6050 1.48632E+014 
6100 1.48518E+014 
6150 1.48397E+014 
6200 1.48269E+014 
6250 1.48133E+014 
6300 1.4799E+014 
6350 1.4784E+014 
6400 1.47682E+014 
6450 1.47518E+014 
6500 1.47347E+014 
6550 1.4717E+014 
6600 1.46986E+014 
6650 1.46796E+014 
6700 1.46599E+014 
6750 1.46397E+014 
6800 1.46188E+014 
6850 1.45974E+014 
6900 1.45753E+014 
6950 1.45527E+014 
7000 1.45296E+014 
7050 1.45059E+014 
7100 1.44817E+014 
7150 1.44569E+014 
7200 1.44316E+014 
7250 1.44059E+014 
7300 1.43796E+014 
7350 1.43529E+014 
7400 1.43256E+014 
7450 1.4298E+014 
7500 1.42698E+014 
7550 1.42412E+014 
7600 1.42122E+014 
7650 1.41828E+014 
7700 1.41529E+014 
7750 1.41227E+014 
7800 1.4092E+014 
7850 1.40609E+014 
7900 1.40295E+014 
7950 1.39977E+014 
8000 1.39655E+014 
8050 1.39329E+014 
8100 1.39001E+014 
8150 1.38668E+014 
8200 1.38332E+014 
8250 1.37993E+014 
8300 1.37651E+014 
8350 1.37306E+014 
8400 1.36958E+014 
8450 1.36607E+014 
8500 1.36252E+014 
8550 1.35895E+014 
8600 1.35535E+014 
8650 1.35173E+014 
8700 1.34808E+014 
8750 1.3444E+014 
8800 1.3407E+014 
8850 1.33697E+014 
8900 1.33322E+014 
8950 1.32945E+014 
9000 1.32565E+014 
9050 1.32184E+014 
9100 1.318E+014 
9150 1.31414E+014 
9200 1.31026E+014 
9250 1.30636E+014 
9300 1.30244E+014 
9350 1.29851E+014 
9400 1.29455E+014 
9450 1.29058E+014 
9500 1.28659E+014 
9550 1.28259E+014 
9600 1.27857E+014 
9650 1.27453E+014 
9700 1.27048E+014 
9750 1.26642E+014 
9800 1.26234E+014 
9850 1.25825E+014 
9900 1.25415E+014 
9950 1.25003E+014 
10000 1.2459E+014 
10050 1.24176E+014 
10100 1.23761E+014 
10150 1.23345E+014 
10200 1.22928E+014 
10250 1.2251E+014 
10300 1.22091E+014 
10350 1.21671E+014 
10400 1.2125E+014 
10450 1.20828E+014 
10500 1.20406E+014 
10550 1.19983E+014 
10600 1.19559E+014 
10650 1.19135E+014 
10700 1.1871E+014 
10750 1.18284E+014 
10800 1.17858E+014 
10850 1.17431E+014 
10900 1.17004E+014 
10950 1.16577E+014 
11000 1.16149E+014 
11050 1.1572E+014 
11100 1.15292E+014 
11150 1.14862E+014 
11200 1.14433E+014 
11250 1.14004E+014 
11300 1.13574E+014 
11350 1.13144E+014 
11400 1.12714E+014 
11450 1.12284E+014 
11500 1.11853E+014 
11550 1.11423E+014 
11600 1.10993E+014 
11650 1.10562E+014 
11700 1.10132E+014 
11750 1.09702E+014 
11800 1.09271E+014 
11850 1.08841E+014 
11900 1.08411E+014 
11950 1.07981E+014 
12000 1.07551E+014 
12050 1.07122E+014 
12100 1.06692E+014 
12150 1.06263E+014 
12200 1.05834E+014 
12250 1.05406E+014 
12300 1.04978E+014 
12350 1.0455E+014 
12400 1.04122E+014 
12450 1.03695E+014 
12500 1.03268E+014 
12550 1.02841E+014 
12600 1.02416E+014 
12650 1.0199E+014 
12700 1.01565E+014 
12750 1.0114E+014 
12800 1.00716E+014 
12850 1.00293E+014 
12900 9.98695E+013 
12950 9.94471E+013 
13000 9.90252E+013 
13050 9.86039E+013 
13100 9.81832E+013 
13150 9.77631E+013 
13200 9.73437E+013 
13250 9.69249E+013 
13300 9.65068E+013 
13350 9.60894E+013 
13400 9.56727E+013 
13450 9.52567E+013 
13500 9.48415E+013 
13550 9.4427E+013 
13600 9.40132E+013 
13650 9.36002E+013 
13700 9.3188E+013 
13750 9.27766E+013 
13800 9.2366E+013 
13850 9.19563E+013 
13900 9.15473E+013 
13950 9.11393E+013 
14000 9.0732E+013 
14050 9.03257E+013 
14100 8.99202E+013 
14150 8.95156E+013 
14200 8.9112E+013 
14250 8.87092E+013 
14300 8.83074E+013 
14350 8.79065E+013 
14400 8.75065E+013 
14450 8.71075E+013 
14500 8.67095E+013 
14550 8.63124E+013 
14600 8.59163E+013 
14650 8.55212E+013 
14700 8.51271E+013 
14750 8.4734E+013 
14800 8.4342E+013 
14850 8.39509E+013 
14900 8.35609E+013 
14950 8.31719E+013 
15000 8.2784E+013 
15050 8.23971E+013 
15100 8.20113E+013 
15150 8.16265E+013 
15200 8.12428E+013 
15250 8.08602E+013 
15300 8.04787E+013 
15350 8.00983E+013 
15400 7.97189E+013 
15450 7.93407E+013 
15500 7.89636E+013 
15550 7.85876E+013 
15600 7.82128E+013 
15650 7.7839E+013 
15700 7.74664E+013 
15750 7.70949E+013 
15800 7.67246E+013 
15850 7.63554E+013 
15900 7.59874E+013 
15950 7.56205E+013 
16000 7.52548E+013 
16050 7.48902E+013 
16100 7.45268E+013 
16150 7.41646E+013 
16200 7.38036E+013 
16250 7.34437E+013 
16300 7.3085E+013 
16350 7.27275E+013 
16400 7.23712E+013 
16450 7.20161E+013 
16500 7.16621E+013 
16550 7.13094E+013 
16600 7.09579E+013 
16650 7.06075E+013 
16700 7.02584E+013 
16750 6.99105E+013 
16800 6.95638E+013 
16850 6.92183E+013 
16900 6.8874E+013 
16950 6.85309E+013 
17000 6.81891E+013 
17050 6.78484E+013 
17100 6.7509E+013 
17150 6.71708E+013 
17200 6.68339E+013 
17250 6.64981E+013 
17300 6.61636E+013 
17350 6.58303E+013 
17400 6.54982E+013 
17450 6.51674E+013 
17500 6.48378E+013 
17550 6.45094E+013 
17600 6.41823E+013 
17650 6.38564E+013 
17700 6.35317E+013 
17750 6.32082E+013 
17800 6.2886E+013 
17850 6.2565E+013 
17900 6.22453E+013 
17950 6.19268E+013 
18000 6.16095E+013 
18050 6.12934E+013 
18100 6.09786E+013 
18150 6.0665E+013 
18200 6.03527E+013 
18250 6.00415E+013 
18300 5.97316E+013 
18350 5.9423E+013 
18400 5.91156E+013 
18450 5.88094E+013 
18500 5.85044E+013 
18550 5.82006E+013 
18600 5.78981E+013 
18650 5.75968E+013 
18700 5.72968E+013 
18750 5.69979E+013 
18800 5.67003E+013 
18850 5.6404E+013 
18900 5.61088E+013 
18950 5.58148E+013 
19000 5.55221E+013 
19050 5.52306E+013 
19100 5.49403E+013 
19150 5.46512E+013 
19200 5.43634E+013 
19250 5.40767E+013 
19300 5.37912E+013 
19350 5.3507E+013 
19400 5.3224E+013 
19450 5.29422E+013 
19500 5.26615E+013 
19550 5.23821E+013 
19600 5.21039E+013 
19650 5.18269E+013 
19700 5.1551E+013 
19750 5.12764E+013 
19800 5.1003E+013 
19850 5.07307E+013 
19900 5.04597E+013 
19950 5.01898E+013 
20000 4.99211E+013 
20050 4.96536E+013 
20100 4.93872E+013 
20150 4.91221E+013 
20200 4.88581E+013 
20250 4.85953E+013 
20300 4.83336E+013 
20350 4.80731E+013 
20400 4.78138E+013 
20450 4.75557E+013 
20500 4.72987E+013 
20550 4.70428E+013 
20600 4.67881E+013 
20650 4.65346E+013 
20700 4.62822E+013 
20750 4.6031E+013 
20800 4.57809E+013 
20850 4.55319E+013 
20900 4.52841E+013 
20950 4.50374E+013 
21000 4.47919E+013 
21050 4.45475E+013 
21100 4.43042E+013 
21150 4.4062E+013 
21200 4.38209E+013 
21250 4.3581E+013 
21300 4.33422E+013 
21350 4.31045E+013 
21400 4.28679E+013 
21450 4.26324E+013 
21500 4.2398E+013 
21550 4.21647E+013 
21600 4.19325E+013 
21650 4.17014E+013 
21700 4.14714E+013 
21750 4.12424E+013 
21800 4.10146E+013 
21850 4.07878E+013 
21900 4.05622E+013 
21950 4.03376E+013 
22000 4.0114E+013 
22050 3.98916E+013 
22100 3.96701E+013 
22150 3.94498E+013 
22200 3.92305E+013 
22250 3.90123E+013 
22300 3.87951E+013 
22350 3.8579E+013 
22400 3.83639E+013 
22450 3.81498E+013 
22500 3.79368E+013 
22550 3.77249E+013 
22600 3.75139E+013 
22650 3.7304E+013 
22700 3.70951E+013 
22750 3.68873E+013 
22800 3.66804E+013 
22850 3.64746E+013 
22900 3.62697E+013 
22950 3.60659E+013 
23000 3.58631E+013 
23050 3.56613E+013 
23100 3.54605E+013 
23150 3.52607E+013 
23200 3.50619E+013 
23250 3.4864E+013 
23300 3.46671E+013 
23350 3.44713E+013 
23400 3.42764E+013 
23450 3.40825E+013 
23500 3.38895E+013 
23550 3.36975E+013 
23600 3.35065E+013 
23650 3.33164E+013 
23700 3.31273E+013 
23750 3.29391E+013 
23800 3.27519E+013 
23850 3.25656E+013 
23900 3.23803E+013 
23950 3.21959E+013 
24000 3.20125E+013 
24050 3.183E+013 
24100 3.16483E+013 
24150 3.14677E+013 
24200 3.12879E+013 
24250 3.11091E+013 
24300 3.09312E+013 
24350 3.07542E+013 
24400 3.05781E+013 
24450 3.04029E+013 
24500 3.02286E+013 
24550 3.00551E+013 
24600 2.98826E+013 
24650 2.9711E+013 
24700 2.95403E+013 
24750 2.93704E+013 
24800 2.92014E+013 
24850 2.90333E+013 
24900 2.88661E+013 
24950 2.86997E+013 
25000 2.85342E+013 
25050 2.83696E+013 
25100 2.82058E+013 
25150 2.80429E+013 
25200 2.78808E+013 
25250 2.77196E+013 
25300 2.75592E+013 
25350 2.73996E+013 
25400 2.72409E+013 
25450 2.7083E+013 
25500 2.6926E+013 
25550 2.67698E+013 
25600 2.66143E+013 
25650 2.64598E+013 
25700 2.6306E+013 
25750 2.6153E+013 
25800 2.60009E+013 
25850 2.58496E+013 
25900 2.5699E+013 
25950 2.55493E+013 
26000 2.54003E+013 
26050 2.52522E+013 
26100 2.51048E+013 
26150 2.49582E+013 
26200 2.48124E+013 
26250 2.46674E+013 
26300 2.45231E+013 
26350 2.43796E+013 
26400 2.42369E+013 
26450 2.4095E+013 
26500 2.39538E+013 
26550 2.38134E+013 
26600 2.36737E+013 
26650 2.35348E+013 
26700 2.33966E+013 
26750 2.32592E+013 
26800 2.31225E+013 
26850 2.29865E+013 
26900 2.28513E+013 
26950 2.27168E+013 
27000 2.25831E+013 
27050 2.245E+013 
27100 2.23177E+013 
27150 2.21861E+013 
27200 2.20552E+013 
27250 2.19251E+013 
27300 2.17956E+013 
27350 2.16668E+013 
27400 2.15388E+013 
27450 2.14114E+013 
27500 2.12848E+013 
27550 2.11588E+013 
27600 2.10335E+013 
27650 2.09089E+013 
27700 2.0785E+013 
27750 2.06617E+013 
27800 2.05392E+013 
27850 2.04173E+013 
27900 2.02961E+013 
27950 2.01755E+013 
28000 2.00556E+013 
28050 1.99364E+013 
28100 1.98178E+013 
28150 1.96999E+013 
28200 1.95827E+013 
28250 1.94661E+013 
28300 1.93501E+013 
28350 1.92347E+013 
28400 1.912E+013 
28450 1.9006E+013 
28500 1.88926E+013 
28550 1.87798E+013 
28600 1.86676E+013 
28650 1.85561E+013 
28700 1.84452E+013 
28750 1.83348E+013 
28800 1.82252E+013 
28850 1.81161E+013 
28900 1.80076E+013 
28950 1.78997E+013 
29000 1.77925E+013 
29050 1.76858E+013 
29100 1.75797E+013 
29150 1.74743E+013 
29200 1.73694E+013 
29250 1.72651E+013 
29300 1.71614E+013 
29350 1.70583E+013 
29400 1.69557E+013 
29450 1.68538E+013 
29500 1.67524E+013 
29550 1.66516E+013 
29600 1.65513E+013 
29650 1.64516E+013 
29700 1.63525E+013 
29750 1.62539E+013 
29800 1.61559E+013 
29850 1.60584E+013 
29900 1.59615E+013 
29950 1.58652E+013 
30000 1.57694E+013 
30050 1.56741E+013 
30100 1.55794E+013 
30150 1.54852E+013 
30200 1.53915E+013 
30250 1.52984E+013 
30300 1.52058E+013 
30350 1.51138E+013 
30400 1.50222E+013 
30450 1.49312E+013 
30500 1.48407E+013 
30550 1.47507E+013 
30600 1.46613E+013 
30650 1.45723E+013 
30700 1.44838E+013 
30750 1.43959E+013 
30800 1.43084E+013 
30850 1.42215E+013 
30900 1.41351E+013 
30950 1.40491E+013 
31000 1.39637E+013 
31050 1.38787E+013 
31100 1.37942E+013 
31150 1.37102E+013 
31200 1.36267E+013 
31250 1.35437E+013 
31300 1.34612E+013 
31350 1.33791E+013 
31400 1.32975E+013 
31450 1.32164E+013 
31500 1.31357E+013 
31550 1.30555E+013 
31600 1.29758E+013 
31650 1.28965E+013 
31700 1.28177E+013 
31750 1.27393E+013 
31800 1.26614E+013 
31850 1.2584E+013 
31900 1.2507E+013 
31950 1.24304E+013 
32000 1.23543E+013 
32050 1.22786E+013 
32100 1.22034E+013 
32150 1.21286E+013 
32200 1.20543E+013 
32250 1.19803E+013 
32300 1.19068E+013 
32350 1.18338E+013 
32400 1.17611E+013 
32450 1.16889E+013 
32500 1.16171E+013 
32550 1.15457E+013 
32600 1.14748E+013 
32650 1.14042E+013 
32700 1.13341E+013 
32750 1.12643E+013 
32800 1.1195E+013 
32850 1.11261E+013 
32900 1.10576E+013 
32950 1.09895E+013 
33000 1.09218E+013 
33050 1.08545E+013 
33100 1.07876E+013 
33150 1.07211E+013 
33200 1.06549E+013 
33250 1.05892E+013 
33300 1.05238E+013 
33350 1.04589E+013 
33400 1.03943E+013 
33450 1.03301E+013 
33500 1.02662E+013 
33550 1.02028E+013 
33600 1.01397E+013 
33650 1.0077E+013 
33700 1.00146E+013 
33750 9.95268E+012 
33800 9.89107E+012 
33850 9.82983E+012 
33900 9.76895E+012 
33950 9.70844E+012 
34000 9.64828E+012 
34050 9.58847E+012 
34100 9.52902E+012 
34150 9.46993E+012 
34200 9.41118E+012 
34250 9.35278E+012 
34300 9.29473E+012 
34350 9.23703E+012 
34400 9.17966E+012 
34450 9.12264E+012 
34500 9.06595E+012 
34550 9.00961E+012 
34600 8.9536E+012 
34650 8.89792E+012 
34700 8.84257E+012 
34750 8.78755E+012 
34800 8.73286E+012 
34850 8.6785E+012 
34900 8.62446E+012 
34950 8.57074E+012 
35000 8.51735E+012 
35050 8.46427E+012 
35100 8.41151E+012 
35150 8.35907E+012 
35200 8.30693E+012 
35250 8.25512E+012 
35300 8.20361E+012 
35350 8.15241E+012 
35400 8.10151E+012 
35450 8.05092E+012 
35500 8.00064E+012 
35550 7.95065E+012 
35600 7.90097E+012 
35650 7.85158E+012 
35700 7.80249E+012 
35750 7.7537E+012 
35800 7.7052E+012 
35850 7.65699E+012 
35900 7.60907E+012 
35950 7.56144E+012 
36000 7.51409E+012 
36050 7.46703E+012 
36100 7.42025E+012 
36150 7.37376E+012 
36200 7.32755E+012 
36250 7.28161E+012 
36300 7.23595E+012 
36350 7.19057E+012 
36400 7.14546E+012 
36450 7.10062E+012 
36500 7.05605E+012 
36550 7.01176E+012 
36600 6.96773E+012 
36650 6.92396E+012 
36700 6.88047E+012 
36750 6.83723E+012 
36800 6.79426E+012 
36850 6.75154E+012 
36900 6.70909E+012 
36950 6.66689E+012 
37000 6.62495E+012 
37050 6.58327E+012 
37100 6.54183E+012 
37150 6.50065E+012 
37200 6.45972E+012 
37250 6.41904E+012 
37300 6.3786E+012 
37350 6.33841E+012 
37400 6.29846E+012 
37450 6.25876E+012 
37500 6.2193E+012 
37550 6.18007E+012 
37600 6.14109E+012 
37650 6.10235E+012 
37700 6.06384E+012 
37750 6.02556E+012 
37800 5.98752E+012 
37850 5.94971E+012 
37900 5.91213E+012 
37950 5.87478E+012 
38000 5.83766E+012 
38050 5.80077E+012 
38100 5.7641E+012 
38150 5.72765E+012 
38200 5.69143E+012 
38250 5.65543E+012 
38300 5.61965E+012 
38350 5.58409E+012 
38400 5.54874E+012 
38450 5.51361E+012 
38500 5.4787E+012 
38550 5.444E+012 
38600 5.40952E+012 
38650 5.37524E+012 
38700 5.34118E+012 
38750 5.30732E+012 
38800 5.27367E+012 
38850 5.24023E+012 
38900 5.207E+012 
38950 5.17396E+012 
39000 5.14114E+012 
39050 5.10851E+012 
39100 5.07608E+012 
39150 5.04385E+012 
39200 5.01183E+012 
39250 4.97999E+012 
39300 4.94836E+012 
39350 4.91692E+012 
39400 4.88567E+012 
39450 4.85461E+012 
39500 4.82375E+012 
39550 4.79308E+012 
39600 4.76259E+012 
39650 4.73229E+012 
39700 4.70219E+012 
39750 4.67226E+012 
39800 4.64252E+012 
39850 4.61297E+012 
39900 4.5836E+012 
39950 4.5544E+012 
40000 4.52539E+012 
40050 4.49656E+012 
40100 4.46791E+012 
40150 4.43943E+012 
40200 4.41113E+012 
40250 4.38301E+012 
40300 4.35506E+012 
40350 4.32728E+012 
40400 4.29967E+012 
40450 4.27224E+012 
40500 4.24498E+012 
40550 4.21788E+012 
40600 4.19095E+012 
40650 4.16419E+012 
40700 4.1376E+012 
40750 4.11117E+012 
40800 4.08491E+012 
40850 4.0588E+012 
40900 4.03286E+012 
40950 4.00708E+012 
41000 3.98147E+012 
41050 3.95601E+012 
41100 3.93071E+012 
41150 3.90556E+012 
41200 3.88058E+012 
41250 3.85574E+012 
41300 3.83107E+012 
41350 3.80654E+012 
41400 3.78217E+012 
41450 3.75795E+012 
41500 3.73389E+012 
41550 3.70997E+012 
41600 3.6862E+012 
41650 3.66258E+012 
41700 3.63911E+012 
41750 3.61578E+012 
41800 3.5926E+012 
41850 3.56956E+012 
41900 3.54667E+012 
41950 3.52392E+012 
42000 3.50131E+012 
42050 3.47884E+012 
42100 3.45652E+012 
42150 3.43433E+012 
42200 3.41228E+012 
42250 3.39037E+012 
42300 3.3686E+012 
42350 3.34696E+012 
42400 3.32546E+012 
42450 3.3041E+012 
42500 3.28286E+012 
42550 3.26176E+012 
42600 3.2408E+012 
42650 3.21996E+012 
42700 3.19926E+012 
42750 3.17868E+012 
42800 3.15823E+012 
42850 3.13792E+012 
42900 3.11772E+012 
42950 3.09766E+012 
43000 3.07772E+012 
43050 3.05791E+012 
43100 3.03822E+012 
43150 3.01866E+012 
43200 2.99921E+012 
43250 2.97989E+012 
43300 2.96069E+012 
43350 2.94162E+012 
43400 2.92266E+012 
43450 2.90382E+012 
43500 2.8851E+012 
43550 2.8665E+012 
43600 2.84801E+012 
43650 2.82964E+012 
43700 2.81139E+012 
43750 2.79325E+012 
43800 2.77523E+012 
43850 2.75732E+012 
43900 2.73952E+012 
43950 2.72184E+012 
44000 2.70426E+012 
44050 2.6868E+012 
44100 2.66945E+012 
44150 2.65221E+012 
44200 2.63507E+012 
44250 2.61805E+012 
44300 2.60113E+012 
44350 2.58432E+012 
44400 2.56761E+012 
44450 2.55101E+012 
44500 2.53451E+012 
44550 2.51813E+012 
44600 2.50184E+012 
44650 2.48565E+012 
44700 2.46957E+012 
44750 2.45359E+012 
44800 2.43771E+012 
44850 2.42193E+012 
44900 2.40625E+012 
44950 2.39068E+012 
45000 2.3752E+012 
45050 2.35981E+012 
45100 2.34453E+012 
45150 2.32934E+012 
45200 2.31425E+012 
45250 2.29925E+012 
45300 2.28435E+012 
45350 2.26954E+012 
45400 2.25483E+012 
45450 2.24021E+012 
45500 2.22568E+012 
45550 2.21125E+012 
45600 2.19691E+012 
45650 2.18265E+012 
45700 2.16849E+012 
45750 2.15442E+012 
45800 2.14044E+012 
45850 2.12655E+012 
45900 2.11274E+012 
45950 2.09902E+012 
46000 2.08539E+012 
46050 2.07185E+012 
46100 2.05839E+012 
46150 2.04502E+012 
46200 2.03174E+012 
46250 2.01853E+012 
46300 2.00542E+012 
46350 1.99238E+012 
46400 1.97943E+012 
46450 1.96656E+012 
46500 1.95378E+012 
46550 1.94107E+012 
46600 1.92845E+012 
46650 1.9159E+012 
46700 1.90344E+012 
46750 1.89105E+012 
46800 1.87875E+012 
46850 1.86652E+012 
46900 1.85437E+012 
46950 1.8423E+012 
47000 1.83031E+012 
47050 1.81839E+012 
47100 1.80655E+012 
47150 1.79478E+012 
47200 1.78309E+012 
47250 1.77147E+012 
47300 1.75993E+012 
47350 1.74846E+012 
47400 1.73707E+012 
47450 1.72575E+012 
47500 1.7145E+012 
47550 1.70332E+012 
47600 1.69221E+012 
47650 1.68118E+012 
47700 1.67021E+012 
47750 1.65932E+012 
47800 1.64849E+012 
47850 1.63774E+012 
47900 1.62705E+012 
47950 1.61643E+012 
48000 1.60588E+012 
48050 1.5954E+012 
48100 1.58498E+012 
48150 1.57464E+012 
48200 1.56435E+012 
48250 1.55414E+012 
48300 1.54399E+012 
48350 1.5339E+012 
48400 1.52388E+012 
48450 1.51392E+012 
48500 1.50403E+012 
48550 1.4942E+012 
48600 1.48443E+012 
48650 1.47473E+012 
48700 1.46509E+012 
48750 1.45551E+012 
48800 1.44599E+012 
48850 1.43653E+012 
48900 1.42714E+012 
48950 1.4178E+012 
49000 1.40853E+012 
49050 1.39931E+012 
49100 1.39015E+012 
49150 1.38105E+012 
49200 1.37202E+012 
49250 1.36303E+012 
49300 1.35411E+012 
49350 1.34524E+012 
49400 1.33644E+012 
49450 1.32768E+012 
49500 1.31899E+012 
49550 1.31035E+012 
49600 1.30176E+012 
49650 1.29323E+012 
49700 1.28476E+012 
49750 1.27634E+012 
49800 1.26797E+012 
49850 1.25966E+012 
49900 1.2514E+012 
49950 1.2432E+012 
50000 1.23505E+012 
50050 1.22695E+012 
50100 1.2189E+012 
50150 1.21091E+012 
50200 1.20296E+012 
50250 1.19507E+012 
50300 1.18723E+012 
50350 1.17944E+012 
50400 1.1717E+012 
50450 1.16401E+012 
50500 1.15637E+012 
50550 1.14878E+012 
50600 1.14123E+012 
50650 1.13374E+012 
50700 1.12629E+012 
50750 1.1189E+012 
50800 1.11155E+012 
50850 1.10425E+012 
50900 1.09699E+012 
50950 1.08978E+012 
51000 1.08262E+012 
51050 1.07551E+012 
51100 1.06844E+012 
51150 1.06141E+012 
51200 1.05444E+012 
51250 1.0475E+012 
51300 1.04062E+012 
51350 1.03377E+012 
51400 1.02697E+012 
51450 1.02022E+012 
51500 1.01351E+012 
51550 1.00684E+012 
51600 1.00022E+012 
51650 9.93635E+011 
51700 9.87096E+011 
51750 9.806E+011 
51800 9.74146E+011 
51850 9.67733E+011 
51900 9.61362E+011 
51950 9.55033E+011 
52000 9.48744E+011 
52050 9.42496E+011 
52100 9.36289E+011 
52150 9.30122E+011 
52200 9.23995E+011 
52250 9.17908E+011 
52300 9.1186E+011 
52350 9.05852E+011 
52400 8.99882E+011 
52450 8.93951E+011 
52500 8.88059E+011 
52550 8.82206E+011 
52600 8.7639E+011 
52650 8.70611E+011 
52700 8.64871E+011 
52750 8.59168E+011 
52800 8.53501E+011 
52850 8.47872E+011 
52900 8.42279E+011 
52950 8.36723E+011 
53000 8.31203E+011 
53050 8.25718E+011 
53100 8.2027E+011 
53150 8.14856E+011 
53200 8.09478E+011 
53250 8.04135E+011 
53300 7.98827E+011 
53350 7.93553E+011 
53400 7.88314E+011 
53450 7.83108E+011 
53500 7.77937E+011 
53550 7.72799E+011 
53600 7.67695E+011 
53650 7.62624E+011 
53700 7.57586E+011 
53750 7.52581E+011 
53800 7.47608E+011 
53850 7.42668E+011 
53900 7.3776E+011 
53950 7.32884E+011 
54000 7.2804E+011 
54050 7.23227E+011 
54100 7.18446E+011 
54150 7.13696E+011 
54200 7.08977E+011 
54250 7.04289E+011 
54300 6.99631E+011 
54350 6.95004E+011 
54400 6.90407E+011 
54450 6.85839E+011 
54500 6.81302E+011 
54550 6.76795E+011 
54600 6.72316E+011 
54650 6.67867E+011 
54700 6.63447E+011 
54750 6.59056E+011 
54800 6.54694E+011 
54850 6.5036E+011 
54900 6.46054E+011 
54950 6.41777E+011 
55000 6.37527E+011 
55050 6.33305E+011 
55100 6.29111E+011 
55150 6.24945E+011 
55200 6.20805E+011 
55250 6.16693E+011 
55300 6.12607E+011 
55350 6.08548E+011 
55400 6.04516E+011 
55450 6.0051E+011 
55500 5.96531E+011 
55550 5.92577E+011 
55600 5.88649E+011 
55650 5.84747E+011 
55700 5.80871E+011 
55750 5.7702E+011 
55800 5.73194E+011 
55850 5.69393E+011 
55900 5.65617E+011 
55950 5.61865E+011 
56000 5.58139E+011 
56050 5.54437E+011 
56100 5.50759E+011 
56150 5.47104E+011 
56200 5.43475E+011 
56250 5.39868E+011 
56300 5.36286E+011 
56350 5.32727E+011 
56400 5.29191E+011 
56450 5.25679E+011 
56500 5.22189E+011 
56550 5.18722E+011 
56600 5.15278E+011 
56650 5.11857E+011 
56700 5.08458E+011 
56750 5.05082E+011 
56800 5.01727E+011 
56850 4.98395E+011 
56900 4.95084E+011 
56950 4.91796E+011 
57000 4.88528E+011 
57050 4.85283E+011 
57100 4.82058E+011 
57150 4.78855E+011 
57200 4.75673E+011 
57250 4.72511E+011 
57300 4.69371E+011 
57350 4.66251E+011 
57400 4.63151E+011 
57450 4.60072E+011 
57500 4.57013E+011 
57550 4.53975E+011 
57600 4.50956E+011 
57650 4.47957E+011 
57700 4.44978E+011 
57750 4.42018E+011 
57800 4.39078E+011 
57850 4.36157E+011 
57900 4.33256E+011 
57950 4.30373E+011 
58000 4.27509E+011 
58050 4.24665E+011 
58100 4.21839E+011 
58150 4.19031E+011 
58200 4.16242E+011 
58250 4.13472E+011 
58300 4.10719E+011 
58350 4.07985E+011 
58400 4.05269E+011 
58450 4.02571E+011 
58500 3.9989E+011 
58550 3.97227E+011 
58600 3.94582E+011 
58650 3.91954E+011 
58700 3.89343E+011 
58750 3.8675E+011 
58800 3.84173E+011 
58850 3.81614E+011 
58900 3.79071E+011 
58950 3.76546E+011 
59000 3.74036E+011 
59050 3.71544E+011 
59100 3.69068E+011 
59150 3.66608E+011 
59200 3.64164E+011 
59250 3.61737E+011 
59300 3.59325E+011 
59350 3.5693E+011 
59400 3.5455E+011 
59450 3.52186E+011 
59500 3.49837E+011 
59550 3.47504E+011 
59600 3.45187E+011 
59650 3.42884E+011 
59700 3.40597E+011 
59750 3.38325E+011 
59800 3.36068E+011 
59850 3.33826E+011 
59900 3.31599E+011 
59950 3.29386E+011 
60000 3.27188E+011 
60050 3.25005E+011 
60100 3.22836E+011 
60150 3.20681E+011 
60200 3.18541E+011 
60250 3.16414E+011 
60300 3.14302E+011 
60350 3.12204E+011 
60400 3.10119E+011 
60450 3.08048E+011 
60500 3.05992E+011 
60550 3.03948E+011 
60600 3.01918E+011 
60650 2.99902E+011 
60700 2.97899E+011 
60750 2.95909E+011 
60800 2.93932E+011 
60850 2.91968E+011 
60900 2.90018E+011 
60950 2.8808E+011 
61000 2.86155E+011 
61050 2.84243E+011 
61100 2.82343E+011 
61150 2.80456E+011 
61200 2.78582E+011 
61250 2.7672E+011 
61300 2.7487E+011 
61350 2.73032E+011 
61400 2.71207E+011 
61450 2.69394E+011 
61500 2.67592E+011 
61550 2.65803E+011 
61600 2.64026E+011 
61650 2.6226E+011 
61700 2.60506E+011 
61750 2.58763E+011 
61800 2.57033E+011 
61850 2.55313E+011 
61900 2.53605E+011 
61950 2.51908E+011 
62000 2.50223E+011 
62050 2.48549E+011 
62100 2.46886E+011 
62150 2.45233E+011 
62200 2.43592E+011 
62250 2.41962E+011 
62300 2.40342E+011 
62350 2.38734E+011 
62400 2.37136E+011 
62450 2.35548E+011 
62500 2.33971E+011 
62550 2.32405E+011 
62600 2.30848E+011 
62650 2.29303E+011 
62700 2.27767E+011 
62750 2.26242E+011 
62800 2.24727E+011 
62850 2.23221E+011 
62900 2.21726E+011 
62950 2.20241E+011 
63000 2.18766E+011 
63050 2.173E+011 
63100 2.15844E+011 
63150 2.14398E+011 
63200 2.12961E+011 
63250 2.11534E+011 
63300 2.10117E+011 
63350 2.08709E+011 
63400 2.0731E+011 
63450 2.0592E+011 
63500 2.0454E+011 
63550 2.03169E+011 
63600 2.01807E+011 
63650 2.00454E+011 
63700 1.9911E+011 
63750 1.97775E+011 
63800 1.96449E+011 
63850 1.95131E+011 
63900 1.93823E+011 
63950 1.92523E+011 
64000 1.91232E+011 
64050 1.89949E+011 
64100 1.88675E+011 
64150 1.87409E+011 
64200 1.86152E+011 
64250 1.84903E+011 
64300 1.83662E+011 
64350 1.8243E+011 
64400 1.81206E+011 
64450 1.7999E+011 
64500 1.78782E+011 
64550 1.77582E+011 
64600 1.76391E+011 
64650 1.75207E+011 
64700 1.74031E+011 
64750 1.72862E+011 
64800 1.71702E+011 
64850 1.70549E+011 
64900 1.69404E+011 
64950 1.68267E+011 
65000 1.67137E+011 
65050 1.66015E+011 
65100 1.649E+011 
65150 1.63792E+011 
65200 1.62692E+011 
65250 1.61599E+011 
65300 1.60514E+011 
65350 1.59436E+011 
65400 1.58365E+011 
65450 1.57301E+011 
65500 1.56244E+011 
65550 1.55194E+011 
65600 1.54152E+011 
65650 1.53116E+011 
65700 1.52087E+011 
65750 1.51065E+011 
65800 1.5005E+011 
65850 1.49041E+011 
65900 1.48039E+011 
65950 1.47044E+011 
66000 1.46056E+011 
66050 1.45074E+011 
66100 1.44099E+011 
66150 1.4313E+011 
66200 1.42168E+011 
66250 1.41212E+011 
66300 1.40262E+011 
66350 1.39319E+011 
66400 1.38382E+011 
66450 1.37451E+011 
66500 1.36527E+011 
66550 1.35609E+011 
66600 1.34697E+011 
66650 1.3379E+011 
66700 1.32891E+011 
66750 1.31996E+011 
66800 1.31108E+011 
66850 1.30226E+011 
66900 1.2935E+011 
66950 1.2848E+011 
67000 1.27615E+011 
67050 1.26756E+011 
67100 1.25903E+011 
67150 1.25056E+011 
67200 1.24214E+011 
67250 1.23378E+011 
67300 1.22548E+011 
67350 1.21723E+011 
67400 1.20903E+011 
67450 1.2009E+011 
67500 1.19281E+011 
67550 1.18478E+011 
67600 1.1768E+011 
67650 1.16888E+011 
67700 1.16101E+011 
67750 1.15319E+011 
67800 1.14542E+011 
67850 1.13771E+011 
67900 1.13005E+011 
67950 1.12243E+011 
68000 1.11487E+011 
68050 1.10736E+011 
68100 1.0999E+011 
68150 1.09249E+011 
68200 1.08513E+011 
68250 1.07782E+011 
68300 1.07056E+011 
68350 1.06335E+011 
68400 1.05618E+011 
68450 1.04906E+011 
68500 1.04199E+011 
68550 1.03497E+011 
68600 1.02799E+011 
68650 1.02107E+011 
68700 1.01418E+011 
68750 1.00735E+011 
68800 1.00056E+011 
68850 9.93812E+010 
68900 9.87112E+010 
68950 9.80456E+010 
69000 9.73846E+010 
69050 9.67279E+010 
69100 9.60757E+010 
69150 9.54278E+010 
69200 9.47843E+010 
69250 9.41451E+010 
69300 9.35101E+010 
69350 9.28794E+010 
69400 9.2253E+010 
69450 9.16307E+010 
69500 9.10126E+010 
69550 9.03986E+010 
69600 8.97888E+010 
69650 8.9183E+010 
69700 8.85813E+010 
69750 8.79836E+010 
69800 8.739E+010 
69850 8.68003E+010 
69900 8.62145E+010 
69950 8.56327E+010 
70000 8.50548E+010 
70050 8.44808E+010 
70100 8.39106E+010 
70150 8.33442E+010 
70200 8.27817E+010 
70250 8.22229E+010 
70300 8.16678E+010 
70350 8.11165E+010 
70400 8.05689E+010 
70450 8.00249E+010 
70500 7.94846E+010 
70550 7.89479E+010 
70600 7.84148E+010 
70650 7.78853E+010 
70700 7.73593E+010 
70750 7.68369E+010 
70800 7.6318E+010 
70850 7.58026E+010 
70900 7.52906E+010 
70950 7.4782E+010 
71000 7.42769E+010 
71050 7.37751E+010 
71100 7.32768E+010 
71150 7.27817E+010 
71200 7.229E+010 
71250 7.18016E+010 
71300 7.13165E+010 
71350 7.08346E+010 
71400 7.0356E+010 
71450 6.98805E+010 
71500 6.94083E+010 
71550 6.89393E+010 
71600 6.84733E+010 
71650 6.80106E+010 
71700 6.75509E+010 
71750 6.70943E+010 
71800 6.66408E+010 
71850 6.61903E+010 
71900 6.57428E+010 
71950 6.52984E+010 
72000 6.4857E+010 
72050 6.44185E+010 
72100 6.39829E+010 
72150 6.35503E+010 
72200 6.31206E+010 
72250 6.26938E+010 
72300 6.22698E+010 
72350 6.18487E+010 
72400 6.14304E+010 
72450 6.1015E+010 
72500 6.06023E+010 
72550 6.01924E+010 
72600 5.97853E+010 
72650 5.93809E+010 
72700 5.89792E+010 
72750 5.85802E+010 
72800 5.81839E+010 
72850 5.77903E+010 
72900 5.73993E+010 
72950 5.70109E+010 
73000 5.66252E+010 
73050 5.6242E+010 
73100 5.58614E+010 
73150 5.54834E+010 
73200 5.51079E+010 
73250 5.4735E+010 
73300 5.43646E+010 
73350 5.39966E+010 
73400 5.36311E+010 
73450 5.32681E+010 
73500 5.29076E+010 
73550 5.25494E+010 
73600 5.21937E+010 
73650 5.18404E+010 
73700 5.14894E+010 
73750 5.11408E+010 
73800 5.07945E+010 
73850 5.04506E+010 
73900 5.0109E+010 
73950 4.97697E+010 
74000 4.94327E+010 
74050 4.90979E+010 
74100 4.87654E+010 
74150 4.84352E+010 
74200 4.81072E+010 
74250 4.77813E+010 
74300 4.74577E+010 
74350 4.71362E+010 
74400 4.6817E+010 
74450 4.64998E+010 
74500 4.61848E+010 
74550 4.58719E+010 
74600 4.55612E+010 
74650 4.52525E+010 
74700 4.49459E+010 
74750 4.46414E+010 
74800 4.43389E+010 
74850 4.40384E+010 
74900 4.374E+010 
74950 4.34436E+010 
75000 4.31492E+010 
75050 4.28568E+010 
75100 4.25663E+010 
75150 4.22778E+010 
75200 4.19913E+010 
75250 4.17067E+010 
75300 4.1424E+010 
75350 4.11432E+010 
75400 4.08643E+010 
75450 4.05872E+010 
75500 4.03121E+010 
75550 4.00388E+010 
75600 3.97673E+010 
75650 3.94977E+010 
75700 3.92299E+010 
75750 3.89639E+010 
75800 3.86997E+010 
75850 3.84373E+010 
75900 3.81766E+010 
75950 3.79177E+010 
76000 3.76605E+010 
76050 3.74051E+010 
76100 3.71514E+010 
76150 3.68995E+010 
76200 3.66492E+010 
76250 3.64006E+010 
76300 3.61537E+010 
76350 3.59084E+010 
76400 3.56648E+010 
76450 3.54229E+010 
76500 3.51826E+010 
76550 3.49439E+010 
76600 3.47068E+010 
76650 3.44713E+010 
76700 3.42374E+010 
76750 3.40051E+010 
76800 3.37743E+010 
76850 3.35451E+010 
76900 3.33175E+010 
76950 3.30914E+010 
77000 3.28668E+010 
77050 3.26437E+010 
77100 3.24222E+010 
77150 3.22021E+010 
77200 3.19836E+010 
77250 3.17665E+010 
77300 3.15508E+010 
77350 3.13366E+010 
77400 3.11239E+010 
77450 3.09126E+010 
77500 3.07027E+010 
77550 3.04943E+010 
77600 3.02873E+010 
77650 3.00816E+010 
77700 2.98774E+010 
77750 2.96745E+010 
77800 2.9473E+010 
77850 2.92729E+010 
77900 2.90741E+010 
77950 2.88766E+010 
78000 2.86805E+010 
78050 2.84857E+010 
78100 2.82923E+010 
78150 2.81001E+010 
78200 2.79092E+010 
78250 2.77197E+010 
78300 2.75314E+010 
78350 2.73443E+010 
78400 2.71586E+010 
78450 2.69741E+010 
78500 2.67909E+010 
78550 2.66088E+010 
78600 2.64281E+010 
78650 2.62485E+010 
78700 2.60701E+010 
78750 2.5893E+010 
78800 2.57171E+010 
78850 2.55423E+010 
78900 2.53688E+010 
78950 2.51964E+010 
79000 2.50251E+010 
79050 2.48551E+010 
79100 2.46861E+010 
79150 2.45184E+010 
79200 2.43517E+010 
79250 2.41862E+010 
79300 2.40218E+010 
79350 2.38585E+010 
79400 2.36963E+010 
79450 2.35352E+010 
79500 2.33753E+010 
79550 2.32163E+010 
79600 2.30585E+010 
79650 2.29017E+010 
79700 2.2746E+010 
79750 2.25914E+010 
79800 2.24378E+010 
79850 2.22852E+010 
79900 2.21337E+010 
79950 2.19832E+010 
80000 2.18337E+010 
80050 2.16852E+010 
80100 2.15377E+010 
80150 2.13913E+010 
80200 2.12458E+010 
80250 2.11013E+010 
80300 2.09578E+010 
80350 2.08152E+010 
80400 2.06736E+010 
80450 2.0533E+010 
80500 2.03933E+010 
80550 2.02546E+010 
80600 2.01168E+010 
80650 1.998E+010 
80700 1.98441E+010 
80750 1.97091E+010 
80800 1.9575E+010 
80850 1.94418E+010 
80900 1.93095E+010 
80950 1.91781E+010 
81000 1.90476E+010 
81050 1.8918E+010 
81100 1.87893E+010 
81150 1.86614E+010 
81200 1.85344E+010 
81250 1.84083E+010 
81300 1.8283E+010 
81350 1.81586E+010 
81400 1.8035E+010 
81450 1.79123E+010 
81500 1.77903E+010 
81550 1.76692E+010 
81600 1.7549E+010 
81650 1.74295E+010 
81700 1.73109E+010 
81750 1.7193E+010 
81800 1.7076E+010 
81850 1.69597E+010 
81900 1.68443E+010 
81950 1.67296E+010 
82000 1.66157E+010 
82050 1.65026E+010 
82100 1.63902E+010 
82150 1.62786E+010 
82200 1.61678E+010 
82250 1.60577E+010 
82300 1.59483E+010 
82350 1.58397E+010 
82400 1.57319E+010 
82450 1.56247E+010 
82500 1.55183E+010 
82550 1.54126E+010 
82600 1.53077E+010 
82650 1.52034E+010 
82700 1.50998E+010 
82750 1.4997E+010 
82800 1.48948E+010 
82850 1.47934E+010 
82900 1.46926E+010 
82950 1.45925E+010 
83000 1.44931E+010 
83050 1.43944E+010 
83100 1.42963E+010 
83150 1.41989E+010 
83200 1.41022E+010 
83250 1.40061E+010 
83300 1.39107E+010 
83350 1.38159E+010 
83400 1.37217E+010 
83450 1.36283E+010 
83500 1.35354E+010 
83550 1.34431E+010 
83600 1.33515E+010 
83650 1.32606E+010 
83700 1.31702E+010 
83750 1.30804E+010 
83800 1.29913E+010 
83850 1.29027E+010 
83900 1.28148E+010 
83950 1.27275E+010 
84000 1.26407E+010 
84050 1.25545E+010 
84100 1.2469E+010 
84150 1.2384E+010 
84200 1.22995E+010 
84250 1.22157E+010 
84300 1.21324E+010 
84350 1.20497E+010 
84400 1.19676E+010 
84450 1.1886E+010 
84500 1.18049E+010 
84550 1.17245E+010 
84600 1.16445E+010 
84650 1.15651E+010 
84700 1.14863E+010 
84750 1.14079E+010 
84800 1.13302E+010 
84850 1.12529E+010 
84900 1.11762E+010 
84950 1.10999E+010 
85000 1.10242E+010 
85050 1.09491E+010 
85100 1.08744E+010 
85150 1.08002E+010 
85200 1.07266E+010 
85250 1.06534E+010 
85300 1.05807E+010 
85350 1.05086E+010 
85400 1.04369E+010 
85450 1.03657E+010 
85500 1.0295E+010 
85550 1.02248E+010 
85600 1.0155E+010 
85650 1.00857E+010 
85700 1.00169E+010 
85750 9.94858E+009 
85800 9.88071E+009 
85850 9.8133E+009 
85900 9.74634E+009 
85950 9.67985E+009 
86000 9.6138E+009 
86050 9.5482E+009 
86100 9.48305E+009 
86150 9.41834E+009 
86200 9.35407E+009 
86250 9.29024E+009 
86300 9.22684E+009 
86350 9.16387E+009 
86400 9.10133E+009 
86450 9.03922E+009 
86500 8.97753E+009 
86550 8.91626E+009 
86600 8.8554E+009 
86650 8.79496E+009 
86700 8.73493E+009 
86750 8.67531E+009 
86800 8.61609E+009 
86850 8.55728E+009 
86900 8.49886E+009 
86950 8.44085E+009 
87000 8.38322E+009 
87050 8.326E+009 
87100 8.26915E+009 
87150 8.2127E+009 
87200 8.15663E+009 
87250 8.10094E+009 
87300 8.04563E+009 
87350 7.9907E+009 
87400 7.93614E+009 
87450 7.88195E+009 
87500 7.82813E+009 
87550 7.77468E+009 
87600 7.72159E+009 
87650 7.66886E+009 
87700 7.61649E+009 
87750 7.56448E+009 
87800 7.51282E+009 
87850 7.46151E+009 
87900 7.41055E+009 
87950 7.35994E+009 
88000 7.30968E+009 
88050 7.25975E+009 
88100 7.21017E+009 
88150 7.16092E+009 
88200 7.11201E+009 
88250 7.06343E+009 
88300 7.01518E+009 
88350 6.96726E+009 
88400 6.91967E+009 
88450 6.87239E+009 
88500 6.82545E+009 
88550 6.77882E+009 
88600 6.73251E+009 
88650 6.68651E+009 
88700 6.64083E+009 
88750 6.59546E+009 
88800 6.5504E+009 
88850 6.50564E+009 
88900 6.46119E+009 
88950 6.41704E+009 
89000 6.37319E+009 
89050 6.32965E+009 
89100 6.28639E+009 
89150 6.24344E+009 
89200 6.20077E+009 
89250 6.1584E+009 
89300 6.11631E+009 
89350 6.07451E+009 
89400 6.033E+009 
89450 5.99176E+009 
89500 5.95081E+009 
89550 5.91014E+009 
89600 5.86975E+009 
89650 5.82963E+009 
89700 5.78978E+009 
89750 5.75021E+009 
89800 5.7109E+009 
89850 5.67186E+009 
89900 5.63309E+009 
89950 5.59459E+009 
90000 5.55634E+009 
90050 5.51836E+009 
90100 5.48063E+009 
90150 5.44316E+009 
90200 5.40595E+009 
90250 5.36899E+009 
90300 5.33228E+009 
90350 5.29583E+009 
90400 5.25962E+009 
90450 5.22366E+009 
90500 5.18794E+009 
90550 5.15247E+009 
90600 5.11724E+009 
90650 5.08224E+009 
90700 5.04749E+009 
90750 5.01298E+009 
90800 4.97869E+009 
90850 4.94465E+009 
90900 4.91083E+009 
90950 4.87725E+009 
91000 4.84389E+009 
91050 4.81076E+009 
91100 4.77786E+009 
91150 4.74518E+009 
91200 4.71273E+009 
91250 4.6805E+009 
91300 4.64848E+009 
91350 4.61669E+009 
91400 4.58511E+009 
91450 4.55374E+009 
91500 4.52259E+009 
91550 4.49166E+009 
91600 4.46093E+009 
91650 4.43041E+009 
91700 4.40011E+009 
91750 4.37E+009 
91800 4.34011E+009 
91850 4.31042E+009 
91900 4.28093E+009 
91950 4.25164E+009 
92000 4.22255E+009 
92050 4.19366E+009 
92100 4.16497E+009 
92150 4.13647E+009 
92200 4.10816E+009 
92250 4.08005E+009 
92300 4.05213E+009 
92350 4.02441E+009 
92400 3.99687E+009 
92450 3.96952E+009 
92500 3.94235E+009 
92550 3.91537E+009 
92600 3.88858E+009 
92650 3.86197E+009 
92700 3.83554E+009 
92750 3.80929E+009 
92800 3.78322E+009 
92850 3.75732E+009 
92900 3.73161E+009 
92950 3.70607E+009 
93000 3.6807E+009 
93050 3.65551E+009 
93100 3.63048E+009 
93150 3.60563E+009 
93200 3.58095E+009 
93250 3.55644E+009 
93300 3.53209E+009 
93350 3.50792E+009 
93400 3.4839E+009 
93450 3.46005E+009 
93500 3.43636E+009 
93550 3.41284E+009 
93600 3.38947E+009 
93650 3.36627E+009 
93700 3.34322E+009 
93750 3.32033E+009 
93800 3.2976E+009 
93850 3.27502E+009 
93900 3.2526E+009 
93950 3.23032E+009 
94000 3.20821E+009 
94050 3.18624E+009 
94100 3.16442E+009 
94150 3.14275E+009 
94200 3.12123E+009 
94250 3.09986E+009 
94300 3.07863E+009 
94350 3.05755E+009 
94400 3.03661E+009 
94450 3.01581E+009 
94500 2.99516E+009 
94550 2.97464E+009 
94600 2.95427E+009 
94650 2.93404E+009 
94700 2.91394E+009 
94750 2.89398E+009 
94800 2.87416E+009 
94850 2.85448E+009 
94900 2.83492E+009 
94950 2.8155E+009 
95000 2.79622E+009 
95050 2.77706E+009 
95100 2.75804E+009 
95150 2.73915E+009 
95200 2.72039E+009 
95250 2.70175E+009 
95300 2.68324E+009 
95350 2.66486E+009 
95400 2.6466E+009 
95450 2.62847E+009 
95500 2.61046E+009 
95550 2.59258E+009 
95600 2.57481E+009 
95650 2.55717E+009 
95700 2.53965E+009 
95750 2.52225E+009 
95800 2.50497E+009 
95850 2.4878E+009 
95900 2.47076E+009 
95950 2.45383E+009 
96000 2.43701E+009 
96050 2.42031E+009 
96100 2.40373E+009 
96150 2.38726E+009 
96200 2.3709E+009 
96250 2.35465E+009 
96300 2.33851E+009 
96350 2.32249E+009 
96400 2.30657E+009 
96450 2.29076E+009 
96500 2.27506E+009 
96550 2.25947E+009 
96600 2.24398E+009 
96650 2.2286E+009 
96700 2.21333E+009 
96750 2.19816E+009 
96800 2.18309E+009 
96850 2.16813E+009 
96900 2.15327E+009 
96950 2.13851E+009 
97000 2.12385E+009 
97050 2.10929E+009 
97100 2.09483E+009 
97150 2.08047E+009 
97200 2.06621E+009 
97250 2.05204E+009 
97300 2.03798E+009 
97350 2.024E+009 
97400 2.01013E+009 
97450 1.99635E+009 
97500 1.98266E+009 
97550 1.96907E+009 
97600 1.95557E+009 
97650 1.94216E+009 
97700 1.92884E+009 
97750 1.91562E+009 
97800 1.90248E+009 
97850 1.88944E+009 
97900 1.87648E+009 
97950 1.86361E+009 
98000 1.85083E+009 
98050 1.83814E+009 
98100 1.82554E+009 
98150 1.81302E+009 
98200 1.80059E+009 
98250 1.78824E+009 
98300 1.77598E+009 
98350 1.7638E+009 
98400 1.7517E+009 
98450 1.73969E+009 
98500 1.72776E+009 
98550 1.71591E+009 
98600 1.70414E+009 
98650 1.69245E+009 
98700 1.68084E+009 
98750 1.66931E+009 
98800 1.65786E+009 
98850 1.64649E+009 
98900 1.6352E+009 
98950 1.62398E+009 
99000 1.61284E+009 
99050 1.60178E+009 
99100 1.59079E+009 
99150 1.57988E+009 
99200 1.56904E+009 
99250 1.55828E+009 
99300 1.54759E+009 
99350 1.53697E+009 
99400 1.52643E+009 
99450 1.51596E+009 
99500 1.50556E+009 
99550 1.49523E+009 
99600 1.48497E+009 
99650 1.47478E+009 
99700 1.46466E+009 
99750 1.45461E+009 
99800 1.44463E+009 
99850 1.43472E+009 
99900 1.42488E+009 
99950 1.4151E+009 
100000 1.40539E+009 
