#F U:\Beamline I20\I20-2_EDE\Wigglers\xop\83mm-small-wiggler\EDE wiggler\1p2T-300mA-0p12x1p4mrad.dat
#C I20EDE 1.2T 300mA 0.12x1.4mrad
#S 1 File written by xplot on Tue Dec 07 18:18:30 2010
#N 2
#L    Energy [eV]  Flux [ph/s/0.1%bw]
50 9.80342E+012 
100 1.55489E+013 
150 2.0345E+013 
200 2.46002E+013 
250 2.84838E+013 
300 3.2087E+013 
350 3.54661E+013 
400 3.86588E+013 
450 4.16921E+013 
500 4.45863E+013 
550 4.73568E+013 
600 5.00161E+013 
650 5.25742E+013 
700 5.50394E+013 
750 5.74187E+013 
800 5.97181E+013 
850 6.19427E+013 
900 6.4097E+013 
950 6.61849E+013 
1000 6.82099E+013 
1050 7.01751E+013 
1100 7.20833E+013 
1150 7.3937E+013 
1200 7.57386E+013 
1250 7.74902E+013 
1300 7.91936E+013 
1350 8.08506E+013 
1400 8.24629E+013 
1450 8.40321E+013 
1500 8.55595E+013 
1550 8.70464E+013 
1600 8.84942E+013 
1650 8.9904E+013 
1700 9.12768E+013 
1750 9.26138E+013 
1800 9.39159E+013 
1850 9.5184E+013 
1900 9.6419E+013 
1950 9.76219E+013 
2000 9.87933E+013 
2050 9.99341E+013 
2100 1.01045E+014 
2150 1.02127E+014 
2200 1.0318E+014 
2250 1.04205E+014 
2300 1.05203E+014 
2350 1.06174E+014 
2400 1.0712E+014 
2450 1.08039E+014 
2500 1.08934E+014 
2550 1.09804E+014 
2600 1.10651E+014 
2650 1.11474E+014 
2700 1.12274E+014 
2750 1.13051E+014 
2800 1.13806E+014 
2850 1.1454E+014 
2900 1.15252E+014 
2950 1.15944E+014 
3000 1.16615E+014 
3050 1.17266E+014 
3100 1.17897E+014 
3150 1.1851E+014 
3200 1.19103E+014 
3250 1.19677E+014 
3300 1.20234E+014 
3350 1.20772E+014 
3400 1.21293E+014 
3450 1.21796E+014 
3500 1.22283E+014 
3550 1.22753E+014 
3600 1.23206E+014 
3650 1.23644E+014 
3700 1.24066E+014 
3750 1.24472E+014 
3800 1.24863E+014 
3850 1.25239E+014 
3900 1.256E+014 
3950 1.25947E+014 
4000 1.26279E+014 
4050 1.26597E+014 
4100 1.26902E+014 
4150 1.27194E+014 
4200 1.27472E+014 
4250 1.27737E+014 
4300 1.27989E+014 
4350 1.28228E+014 
4400 1.28456E+014 
4450 1.28671E+014 
4500 1.28874E+014 
4550 1.29065E+014 
4600 1.29245E+014 
4650 1.29414E+014 
4700 1.29571E+014 
4750 1.29717E+014 
4800 1.29853E+014 
4850 1.29978E+014 
4900 1.30092E+014 
4950 1.30197E+014 
5000 1.30291E+014 
5050 1.30375E+014 
5100 1.3045E+014 
5150 1.30515E+014 
5200 1.30571E+014 
5250 1.30617E+014 
5300 1.30654E+014 
5350 1.30683E+014 
5400 1.30702E+014 
5450 1.30713E+014 
5500 1.30716E+014 
5550 1.3071E+014 
5600 1.30696E+014 
5650 1.30674E+014 
5700 1.30645E+014 
5750 1.30607E+014 
5800 1.30562E+014 
5850 1.30509E+014 
5900 1.30449E+014 
5950 1.30382E+014 
6000 1.30307E+014 
6050 1.30226E+014 
6100 1.30138E+014 
6150 1.30043E+014 
6200 1.29941E+014 
6250 1.29833E+014 
6300 1.29719E+014 
6350 1.29598E+014 
6400 1.29471E+014 
6450 1.29338E+014 
6500 1.292E+014 
6550 1.29055E+014 
6600 1.28905E+014 
6650 1.28749E+014 
6700 1.28587E+014 
6750 1.28421E+014 
6800 1.28249E+014 
6850 1.28071E+014 
6900 1.27889E+014 
6950 1.27701E+014 
7000 1.27509E+014 
7050 1.27312E+014 
7100 1.2711E+014 
7150 1.26904E+014 
7200 1.26693E+014 
7250 1.26477E+014 
7300 1.26257E+014 
7350 1.26033E+014 
7400 1.25805E+014 
7450 1.25572E+014 
7500 1.25336E+014 
7550 1.25096E+014 
7600 1.24851E+014 
7650 1.24603E+014 
7700 1.24351E+014 
7750 1.24096E+014 
7800 1.23837E+014 
7850 1.23574E+014 
7900 1.23309E+014 
7950 1.23039E+014 
8000 1.22767E+014 
8050 1.22491E+014 
8100 1.22212E+014 
8150 1.2193E+014 
8200 1.21646E+014 
8250 1.21358E+014 
8300 1.21067E+014 
8350 1.20774E+014 
8400 1.20477E+014 
8450 1.20179E+014 
8500 1.19877E+014 
8550 1.19573E+014 
8600 1.19267E+014 
8650 1.18958E+014 
8700 1.18646E+014 
8750 1.18333E+014 
8800 1.18017E+014 
8850 1.17699E+014 
8900 1.17379E+014 
8950 1.17056E+014 
9000 1.16732E+014 
9050 1.16406E+014 
9100 1.16077E+014 
9150 1.15747E+014 
9200 1.15415E+014 
9250 1.15082E+014 
9300 1.14746E+014 
9350 1.14409E+014 
9400 1.1407E+014 
9450 1.1373E+014 
9500 1.13388E+014 
9550 1.13044E+014 
9600 1.127E+014 
9650 1.12353E+014 
9700 1.12006E+014 
9750 1.11657E+014 
9800 1.11307E+014 
9850 1.10955E+014 
9900 1.10602E+014 
9950 1.10249E+014 
10000 1.09894E+014 
10050 1.09538E+014 
10100 1.09181E+014 
10150 1.08823E+014 
10200 1.08464E+014 
10250 1.08104E+014 
10300 1.07743E+014 
10350 1.07381E+014 
10400 1.07019E+014 
10450 1.06656E+014 
10500 1.06292E+014 
10550 1.05927E+014 
10600 1.05562E+014 
10650 1.05196E+014 
10700 1.04829E+014 
10750 1.04462E+014 
10800 1.04095E+014 
10850 1.03726E+014 
10900 1.03358E+014 
10950 1.02989E+014 
11000 1.02619E+014 
11050 1.02249E+014 
11100 1.01879E+014 
11150 1.01508E+014 
11200 1.01137E+014 
11250 1.00766E+014 
11300 1.00394E+014 
11350 1.00023E+014 
11400 9.96507E+013 
11450 9.92786E+013 
11500 9.89063E+013 
11550 9.85339E+013 
11600 9.81614E+013 
11650 9.77889E+013 
11700 9.74163E+013 
11750 9.70436E+013 
11800 9.6671E+013 
11850 9.62983E+013 
11900 9.59257E+013 
11950 9.55532E+013 
12000 9.51807E+013 
12050 9.48084E+013 
12100 9.44361E+013 
12150 9.40641E+013 
12200 9.36921E+013 
12250 9.33204E+013 
12300 9.29489E+013 
12350 9.25776E+013 
12400 9.22065E+013 
12450 9.18357E+013 
12500 9.14652E+013 
12550 9.1095E+013 
12600 9.07251E+013 
12650 9.03555E+013 
12700 8.99863E+013 
12750 8.96174E+013 
12800 8.9249E+013 
12850 8.88809E+013 
12900 8.85132E+013 
12950 8.8146E+013 
13000 8.77792E+013 
13050 8.74129E+013 
13100 8.70471E+013 
13150 8.66817E+013 
13200 8.63169E+013 
13250 8.59525E+013 
13300 8.55887E+013 
13350 8.52255E+013 
13400 8.48628E+013 
13450 8.45007E+013 
13500 8.41392E+013 
13550 8.37782E+013 
13600 8.34179E+013 
13650 8.30582E+013 
13700 8.26992E+013 
13750 8.23407E+013 
13800 8.1983E+013 
13850 8.16259E+013 
13900 8.12695E+013 
13950 8.09138E+013 
14000 8.05588E+013 
14050 8.02045E+013 
14100 7.98509E+013 
14150 7.9498E+013 
14200 7.91459E+013 
14250 7.87946E+013 
14300 7.8444E+013 
14350 7.80942E+013 
14400 7.77451E+013 
14450 7.73969E+013 
14500 7.70494E+013 
14550 7.67027E+013 
14600 7.63569E+013 
14650 7.60119E+013 
14700 7.56677E+013 
14750 7.53243E+013 
14800 7.49818E+013 
14850 7.46401E+013 
14900 7.42993E+013 
14950 7.39594E+013 
15000 7.36203E+013 
15050 7.32821E+013 
15100 7.29448E+013 
15150 7.26084E+013 
15200 7.22729E+013 
15250 7.19383E+013 
15300 7.16046E+013 
15350 7.12718E+013 
15400 7.09399E+013 
15450 7.0609E+013 
15500 7.0279E+013 
15550 6.99499E+013 
15600 6.96218E+013 
15650 6.92946E+013 
15700 6.89684E+013 
15750 6.86431E+013 
15800 6.83188E+013 
15850 6.79955E+013 
15900 6.76731E+013 
15950 6.73517E+013 
16000 6.70313E+013 
16050 6.67119E+013 
16100 6.63934E+013 
16150 6.60759E+013 
16200 6.57595E+013 
16250 6.5444E+013 
16300 6.51295E+013 
16350 6.48161E+013 
16400 6.45036E+013 
16450 6.41922E+013 
16500 6.38817E+013 
16550 6.35723E+013 
16600 6.32639E+013 
16650 6.29565E+013 
16700 6.26501E+013 
16750 6.23448E+013 
16800 6.20405E+013 
16850 6.17372E+013 
16900 6.14349E+013 
16950 6.11337E+013 
17000 6.08336E+013 
17050 6.05344E+013 
17100 6.02363E+013 
17150 5.99392E+013 
17200 5.96432E+013 
17250 5.93482E+013 
17300 5.90543E+013 
17350 5.87614E+013 
17400 5.84696E+013 
17450 5.81788E+013 
17500 5.7889E+013 
17550 5.76003E+013 
17600 5.73127E+013 
17650 5.70261E+013 
17700 5.67406E+013 
17750 5.64561E+013 
17800 5.61727E+013 
17850 5.58903E+013 
17900 5.5609E+013 
17950 5.53287E+013 
18000 5.50495E+013 
18050 5.47713E+013 
18100 5.44942E+013 
18150 5.42182E+013 
18200 5.39432E+013 
18250 5.36693E+013 
18300 5.33964E+013 
18350 5.31246E+013 
18400 5.28538E+013 
18450 5.25841E+013 
18500 5.23155E+013 
18550 5.20479E+013 
18600 5.17813E+013 
18650 5.15158E+013 
18700 5.12514E+013 
18750 5.0988E+013 
18800 5.07257E+013 
18850 5.04644E+013 
18900 5.02042E+013 
18950 4.9945E+013 
19000 4.96869E+013 
19050 4.94298E+013 
19100 4.91738E+013 
19150 4.89188E+013 
19200 4.86648E+013 
19250 4.84119E+013 
19300 4.816E+013 
19350 4.79092E+013 
19400 4.76594E+013 
19450 4.74107E+013 
19500 4.7163E+013 
19550 4.69163E+013 
19600 4.66707E+013 
19650 4.64261E+013 
19700 4.61825E+013 
19750 4.594E+013 
19800 4.56985E+013 
19850 4.5458E+013 
19900 4.52185E+013 
19950 4.49801E+013 
20000 4.47427E+013 
20050 4.45063E+013 
20100 4.42709E+013 
20150 4.40366E+013 
20200 4.38032E+013 
20250 4.35709E+013 
20300 4.33396E+013 
20350 4.31093E+013 
20400 4.288E+013 
20450 4.26517E+013 
20500 4.24244E+013 
20550 4.21981E+013 
20600 4.19728E+013 
20650 4.17485E+013 
20700 4.15252E+013 
20750 4.13029E+013 
20800 4.10815E+013 
20850 4.08612E+013 
20900 4.06419E+013 
20950 4.04235E+013 
21000 4.02061E+013 
21050 3.99897E+013 
21100 3.97743E+013 
21150 3.95598E+013 
21200 3.93464E+013 
21250 3.91339E+013 
21300 3.89223E+013 
21350 3.87117E+013 
21400 3.85021E+013 
21450 3.82935E+013 
21500 3.80858E+013 
21550 3.7879E+013 
21600 3.76732E+013 
21650 3.74684E+013 
21700 3.72645E+013 
21750 3.70615E+013 
21800 3.68595E+013 
21850 3.66585E+013 
21900 3.64583E+013 
21950 3.62591E+013 
22000 3.60609E+013 
22050 3.58635E+013 
22100 3.56671E+013 
22150 3.54716E+013 
22200 3.52771E+013 
22250 3.50834E+013 
22300 3.48907E+013 
22350 3.46989E+013 
22400 3.4508E+013 
22450 3.4318E+013 
22500 3.41289E+013 
22550 3.39407E+013 
22600 3.37534E+013 
22650 3.3567E+013 
22700 3.33815E+013 
22750 3.31968E+013 
22800 3.30131E+013 
22850 3.28303E+013 
22900 3.26483E+013 
22950 3.24672E+013 
23000 3.2287E+013 
23050 3.21077E+013 
23100 3.19292E+013 
23150 3.17516E+013 
23200 3.15749E+013 
23250 3.1399E+013 
23300 3.1224E+013 
23350 3.10498E+013 
23400 3.08765E+013 
23450 3.07041E+013 
23500 3.05324E+013 
23550 3.03617E+013 
23600 3.01917E+013 
23650 3.00227E+013 
23700 2.98544E+013 
23750 2.9687E+013 
23800 2.95204E+013 
23850 2.93547E+013 
23900 2.91897E+013 
23950 2.90256E+013 
24000 2.88623E+013 
24050 2.86998E+013 
24100 2.85381E+013 
24150 2.83773E+013 
24200 2.82172E+013 
24250 2.80579E+013 
24300 2.78995E+013 
24350 2.77418E+013 
24400 2.75849E+013 
24450 2.74289E+013 
24500 2.72736E+013 
24550 2.71191E+013 
24600 2.69654E+013 
24650 2.68124E+013 
24700 2.66602E+013 
24750 2.65088E+013 
24800 2.63582E+013 
24850 2.62083E+013 
24900 2.60593E+013 
24950 2.59109E+013 
25000 2.57633E+013 
25050 2.56165E+013 
25100 2.54705E+013 
25150 2.53251E+013 
25200 2.51806E+013 
25250 2.50367E+013 
25300 2.48936E+013 
25350 2.47513E+013 
25400 2.46096E+013 
25450 2.44687E+013 
25500 2.43286E+013 
25550 2.41892E+013 
25600 2.40504E+013 
25650 2.39124E+013 
25700 2.37752E+013 
25750 2.36386E+013 
25800 2.35027E+013 
25850 2.33676E+013 
25900 2.32331E+013 
25950 2.30994E+013 
26000 2.29663E+013 
26050 2.2834E+013 
26100 2.27023E+013 
26150 2.25714E+013 
26200 2.24411E+013 
26250 2.23115E+013 
26300 2.21826E+013 
26350 2.20544E+013 
26400 2.19268E+013 
26450 2.17999E+013 
26500 2.16737E+013 
26550 2.15482E+013 
26600 2.14233E+013 
26650 2.1299E+013 
26700 2.11755E+013 
26750 2.10525E+013 
26800 2.09303E+013 
26850 2.08087E+013 
26900 2.06877E+013 
26950 2.05674E+013 
27000 2.04477E+013 
27050 2.03287E+013 
27100 2.02103E+013 
27150 2.00925E+013 
27200 1.99754E+013 
27250 1.98589E+013 
27300 1.97429E+013 
27350 1.96277E+013 
27400 1.9513E+013 
27450 1.9399E+013 
27500 1.92856E+013 
27550 1.91728E+013 
27600 1.90606E+013 
27650 1.8949E+013 
27700 1.8838E+013 
27750 1.87276E+013 
27800 1.86178E+013 
27850 1.85086E+013 
27900 1.83999E+013 
27950 1.82919E+013 
28000 1.81845E+013 
28050 1.80776E+013 
28100 1.79713E+013 
28150 1.78656E+013 
28200 1.77605E+013 
28250 1.76559E+013 
28300 1.7552E+013 
28350 1.74486E+013 
28400 1.73457E+013 
28450 1.72434E+013 
28500 1.71417E+013 
28550 1.70405E+013 
28600 1.69399E+013 
28650 1.68398E+013 
28700 1.67403E+013 
28750 1.66413E+013 
28800 1.65429E+013 
28850 1.6445E+013 
28900 1.63477E+013 
28950 1.62508E+013 
29000 1.61545E+013 
29050 1.60588E+013 
29100 1.59636E+013 
29150 1.58689E+013 
29200 1.57747E+013 
29250 1.56811E+013 
29300 1.55879E+013 
29350 1.54953E+013 
29400 1.54032E+013 
29450 1.53116E+013 
29500 1.52205E+013 
29550 1.51299E+013 
29600 1.50399E+013 
29650 1.49503E+013 
29700 1.48612E+013 
29750 1.47726E+013 
29800 1.46845E+013 
29850 1.45969E+013 
29900 1.45098E+013 
29950 1.44232E+013 
30000 1.43371E+013 
30050 1.42514E+013 
30100 1.41662E+013 
30150 1.40815E+013 
30200 1.39973E+013 
30250 1.39135E+013 
30300 1.38303E+013 
30350 1.37474E+013 
30400 1.36651E+013 
30450 1.35832E+013 
30500 1.35018E+013 
30550 1.34208E+013 
30600 1.33403E+013 
30650 1.32602E+013 
30700 1.31806E+013 
30750 1.31015E+013 
30800 1.30227E+013 
30850 1.29445E+013 
30900 1.28667E+013 
30950 1.27893E+013 
31000 1.27123E+013 
31050 1.26358E+013 
31100 1.25597E+013 
31150 1.24841E+013 
31200 1.24089E+013 
31250 1.23341E+013 
31300 1.22597E+013 
31350 1.21858E+013 
31400 1.21123E+013 
31450 1.20391E+013 
31500 1.19665E+013 
31550 1.18942E+013 
31600 1.18223E+013 
31650 1.17509E+013 
31700 1.16798E+013 
31750 1.16092E+013 
31800 1.1539E+013 
31850 1.14691E+013 
31900 1.13997E+013 
31950 1.13307E+013 
32000 1.1262E+013 
32050 1.11938E+013 
32100 1.11259E+013 
32150 1.10584E+013 
32200 1.09914E+013 
32250 1.09247E+013 
32300 1.08584E+013 
32350 1.07924E+013 
32400 1.07269E+013 
32450 1.06617E+013 
32500 1.05969E+013 
32550 1.05325E+013 
32600 1.04684E+013 
32650 1.04047E+013 
32700 1.03414E+013 
32750 1.02785E+013 
32800 1.02159E+013 
32850 1.01537E+013 
32900 1.00918E+013 
32950 1.00303E+013 
33000 9.96913E+012 
33050 9.90834E+012 
33100 9.84789E+012 
33150 9.7878E+012 
33200 9.72805E+012 
33250 9.66865E+012 
33300 9.60959E+012 
33350 9.55088E+012 
33400 9.49251E+012 
33450 9.43448E+012 
33500 9.37678E+012 
33550 9.31942E+012 
33600 9.2624E+012 
33650 9.20571E+012 
33700 9.14935E+012 
33750 9.09331E+012 
33800 9.03761E+012 
33850 8.98223E+012 
33900 8.92717E+012 
33950 8.87243E+012 
34000 8.81802E+012 
34050 8.76392E+012 
34100 8.71014E+012 
34150 8.65667E+012 
34200 8.60352E+012 
34250 8.55068E+012 
34300 8.49814E+012 
34350 8.44592E+012 
34400 8.394E+012 
34450 8.34239E+012 
34500 8.29108E+012 
34550 8.24007E+012 
34600 8.18936E+012 
34650 8.13895E+012 
34700 8.08884E+012 
34750 8.03902E+012 
34800 7.98949E+012 
34850 7.94026E+012 
34900 7.89131E+012 
34950 7.84266E+012 
35000 7.79429E+012 
35050 7.74621E+012 
35100 7.69841E+012 
35150 7.65089E+012 
35200 7.60365E+012 
35250 7.5567E+012 
35300 7.51002E+012 
35350 7.46361E+012 
35400 7.41749E+012 
35450 7.37163E+012 
35500 7.32605E+012 
35550 7.28073E+012 
35600 7.23569E+012 
35650 7.19091E+012 
35700 7.1464E+012 
35750 7.10215E+012 
35800 7.05816E+012 
35850 7.01444E+012 
35900 6.97098E+012 
35950 6.92777E+012 
36000 6.88482E+012 
36050 6.84213E+012 
36100 6.79969E+012 
36150 6.7575E+012 
36200 6.71557E+012 
36250 6.67388E+012 
36300 6.63244E+012 
36350 6.59125E+012 
36400 6.55031E+012 
36450 6.50961E+012 
36500 6.46915E+012 
36550 6.42894E+012 
36600 6.38896E+012 
36650 6.34923E+012 
36700 6.30973E+012 
36750 6.27047E+012 
36800 6.23144E+012 
36850 6.19265E+012 
36900 6.15408E+012 
36950 6.11575E+012 
37000 6.07765E+012 
37050 6.03978E+012 
37100 6.00214E+012 
37150 5.96472E+012 
37200 5.92752E+012 
37250 5.89055E+012 
37300 5.8538E+012 
37350 5.81728E+012 
37400 5.78097E+012 
37450 5.74488E+012 
37500 5.709E+012 
37550 5.67335E+012 
37600 5.6379E+012 
37650 5.60267E+012 
37700 5.56766E+012 
37750 5.53285E+012 
37800 5.49825E+012 
37850 5.46387E+012 
37900 5.42969E+012 
37950 5.39571E+012 
38000 5.36194E+012 
38050 5.32838E+012 
38100 5.29502E+012 
38150 5.26186E+012 
38200 5.22889E+012 
38250 5.19613E+012 
38300 5.16357E+012 
38350 5.1312E+012 
38400 5.09903E+012 
38450 5.06706E+012 
38500 5.03528E+012 
38550 5.00369E+012 
38600 4.97229E+012 
38650 4.94108E+012 
38700 4.91007E+012 
38750 4.87923E+012 
38800 4.84859E+012 
38850 4.81814E+012 
38900 4.78786E+012 
38950 4.75778E+012 
39000 4.72787E+012 
39050 4.69815E+012 
39100 4.6686E+012 
39150 4.63924E+012 
39200 4.61006E+012 
39250 4.58105E+012 
39300 4.55222E+012 
39350 4.52357E+012 
39400 4.49509E+012 
39450 4.46678E+012 
39500 4.43864E+012 
39550 4.41068E+012 
39600 4.38289E+012 
39650 4.35527E+012 
39700 4.32781E+012 
39750 4.30053E+012 
39800 4.27341E+012 
39850 4.24645E+012 
39900 4.21967E+012 
39950 4.19304E+012 
40000 4.16658E+012 
40050 4.14028E+012 
40100 4.11414E+012 
40150 4.08816E+012 
40200 4.06233E+012 
40250 4.03667E+012 
40300 4.01117E+012 
40350 3.98582E+012 
40400 3.96062E+012 
40450 3.93558E+012 
40500 3.9107E+012 
40550 3.88596E+012 
40600 3.86138E+012 
40650 3.83695E+012 
40700 3.81267E+012 
40750 3.78854E+012 
40800 3.76455E+012 
40850 3.74072E+012 
40900 3.71703E+012 
40950 3.69348E+012 
41000 3.67008E+012 
41050 3.64683E+012 
41100 3.62372E+012 
41150 3.60075E+012 
41200 3.57792E+012 
41250 3.55523E+012 
41300 3.53268E+012 
41350 3.51027E+012 
41400 3.488E+012 
41450 3.46587E+012 
41500 3.44387E+012 
41550 3.422E+012 
41600 3.40028E+012 
41650 3.37868E+012 
41700 3.35722E+012 
41750 3.3359E+012 
41800 3.3147E+012 
41850 3.29364E+012 
41900 3.2727E+012 
41950 3.2519E+012 
42000 3.23122E+012 
42050 3.21067E+012 
42100 3.19025E+012 
42150 3.16996E+012 
42200 3.14979E+012 
42250 3.12974E+012 
42300 3.10982E+012 
42350 3.09002E+012 
42400 3.07035E+012 
42450 3.0508E+012 
42500 3.03136E+012 
42550 3.01205E+012 
42600 2.99286E+012 
42650 2.97379E+012 
42700 2.95484E+012 
42750 2.936E+012 
42800 2.91728E+012 
42850 2.89868E+012 
42900 2.88019E+012 
42950 2.86182E+012 
43000 2.84356E+012 
43050 2.82541E+012 
43100 2.80738E+012 
43150 2.78946E+012 
43200 2.77165E+012 
43250 2.75395E+012 
43300 2.73636E+012 
43350 2.71889E+012 
43400 2.70152E+012 
43450 2.68426E+012 
43500 2.6671E+012 
43550 2.65006E+012 
43600 2.63311E+012 
43650 2.61628E+012 
43700 2.59955E+012 
43750 2.58292E+012 
43800 2.5664E+012 
43850 2.54998E+012 
43900 2.53367E+012 
43950 2.51745E+012 
44000 2.50134E+012 
44050 2.48532E+012 
44100 2.46941E+012 
44150 2.4536E+012 
44200 2.43788E+012 
44250 2.42227E+012 
44300 2.40675E+012 
44350 2.39132E+012 
44400 2.376E+012 
44450 2.36077E+012 
44500 2.34563E+012 
44550 2.3306E+012 
44600 2.31565E+012 
44650 2.3008E+012 
44700 2.28604E+012 
44750 2.27137E+012 
44800 2.2568E+012 
44850 2.24232E+012 
44900 2.22792E+012 
44950 2.21362E+012 
45000 2.19941E+012 
45050 2.18528E+012 
45100 2.17125E+012 
45150 2.1573E+012 
45200 2.14345E+012 
45250 2.12967E+012 
45300 2.11599E+012 
45350 2.10239E+012 
45400 2.08887E+012 
45450 2.07544E+012 
45500 2.0621E+012 
45550 2.04884E+012 
45600 2.03566E+012 
45650 2.02256E+012 
45700 2.00955E+012 
45750 1.99662E+012 
45800 1.98377E+012 
45850 1.971E+012 
45900 1.95832E+012 
45950 1.94571E+012 
46000 1.93318E+012 
46050 1.92073E+012 
46100 1.90836E+012 
46150 1.89606E+012 
46200 1.88385E+012 
46250 1.87171E+012 
46300 1.85965E+012 
46350 1.84766E+012 
46400 1.83575E+012 
46450 1.82391E+012 
46500 1.81215E+012 
46550 1.80047E+012 
46600 1.78885E+012 
46650 1.77731E+012 
46700 1.76585E+012 
46750 1.75445E+012 
46800 1.74313E+012 
46850 1.73188E+012 
46900 1.7207E+012 
46950 1.70959E+012 
47000 1.69855E+012 
47050 1.68758E+012 
47100 1.67668E+012 
47150 1.66585E+012 
47200 1.65509E+012 
47250 1.6444E+012 
47300 1.63377E+012 
47350 1.62321E+012 
47400 1.61272E+012 
47450 1.60229E+012 
47500 1.59193E+012 
47550 1.58164E+012 
47600 1.57141E+012 
47650 1.56124E+012 
47700 1.55115E+012 
47750 1.54111E+012 
47800 1.53114E+012 
47850 1.52123E+012 
47900 1.51138E+012 
47950 1.5016E+012 
48000 1.49188E+012 
48050 1.48222E+012 
48100 1.47262E+012 
48150 1.46308E+012 
48200 1.45361E+012 
48250 1.44419E+012 
48300 1.43483E+012 
48350 1.42554E+012 
48400 1.4163E+012 
48450 1.40712E+012 
48500 1.398E+012 
48550 1.38893E+012 
48600 1.37993E+012 
48650 1.37098E+012 
48700 1.36209E+012 
48750 1.35325E+012 
48800 1.34447E+012 
48850 1.33575E+012 
48900 1.32708E+012 
48950 1.31847E+012 
49000 1.30991E+012 
49050 1.30141E+012 
49100 1.29296E+012 
49150 1.28457E+012 
49200 1.27623E+012 
49250 1.26794E+012 
49300 1.2597E+012 
49350 1.25152E+012 
49400 1.24339E+012 
49450 1.23531E+012 
49500 1.22729E+012 
49550 1.21931E+012 
49600 1.21138E+012 
49650 1.20351E+012 
49700 1.19569E+012 
49750 1.18791E+012 
49800 1.18019E+012 
49850 1.17251E+012 
49900 1.16489E+012 
49950 1.15731E+012 
50000 1.14978E+012 
50050 1.1423E+012 
50100 1.13487E+012 
50150 1.12748E+012 
50200 1.12014E+012 
50250 1.11285E+012 
50300 1.10561E+012 
50350 1.09841E+012 
50400 1.09126E+012 
50450 1.08415E+012 
50500 1.07709E+012 
50550 1.07007E+012 
50600 1.0631E+012 
50650 1.05617E+012 
50700 1.04929E+012 
50750 1.04245E+012 
50800 1.03566E+012 
50850 1.02891E+012 
50900 1.0222E+012 
50950 1.01554E+012 
51000 1.00891E+012 
51050 1.00233E+012 
51100 9.95798E+011 
51150 9.89302E+011 
51200 9.82849E+011 
51250 9.76437E+011 
51300 9.70066E+011 
51350 9.63736E+011 
51400 9.57446E+011 
51450 9.51197E+011 
51500 9.44988E+011 
51550 9.38819E+011 
51600 9.32689E+011 
51650 9.26599E+011 
51700 9.20548E+011 
51750 9.14536E+011 
51800 9.08562E+011 
51850 9.02627E+011 
51900 8.9673E+011 
51950 8.90871E+011 
52000 8.85049E+011 
52050 8.79265E+011 
52100 8.73519E+011 
52150 8.67809E+011 
52200 8.62136E+011 
52250 8.56499E+011 
52300 8.50898E+011 
52350 8.45334E+011 
52400 8.39806E+011 
52450 8.34313E+011 
52500 8.28855E+011 
52550 8.23433E+011 
52600 8.18045E+011 
52650 8.12692E+011 
52700 8.07374E+011 
52750 8.0209E+011 
52800 7.9684E+011 
52850 7.91624E+011 
52900 7.86441E+011 
52950 7.81292E+011 
53000 7.76176E+011 
53050 7.71093E+011 
53100 7.66043E+011 
53150 7.61025E+011 
53200 7.5604E+011 
53250 7.51087E+011 
53300 7.46166E+011 
53350 7.41276E+011 
53400 7.36418E+011 
53450 7.31592E+011 
53500 7.26797E+011 
53550 7.22032E+011 
53600 7.17299E+011 
53650 7.12596E+011 
53700 7.07923E+011 
53750 7.03281E+011 
53800 6.98668E+011 
53850 6.94085E+011 
53900 6.89533E+011 
53950 6.85009E+011 
54000 6.80515E+011 
54050 6.76049E+011 
54100 6.71613E+011 
54150 6.67205E+011 
54200 6.62826E+011 
54250 6.58475E+011 
54300 6.54152E+011 
54350 6.49858E+011 
54400 6.4559E+011 
54450 6.41351E+011 
54500 6.37139E+011 
54550 6.32954E+011 
54600 6.28797E+011 
54650 6.24666E+011 
54700 6.20562E+011 
54750 6.16485E+011 
54800 6.12434E+011 
54850 6.0841E+011 
54900 6.04411E+011 
54950 6.00438E+011 
55000 5.96491E+011 
55050 5.9257E+011 
55100 5.88674E+011 
55150 5.84803E+011 
55200 5.80958E+011 
55250 5.77137E+011 
55300 5.73341E+011 
55350 5.6957E+011 
55400 5.65824E+011 
55450 5.62101E+011 
55500 5.58403E+011 
55550 5.54729E+011 
55600 5.51078E+011 
55650 5.47451E+011 
55700 5.43848E+011 
55750 5.40268E+011 
55800 5.36712E+011 
55850 5.33179E+011 
55900 5.29668E+011 
55950 5.2618E+011 
56000 5.22715E+011 
56050 5.19273E+011 
56100 5.15853E+011 
56150 5.12455E+011 
56200 5.09079E+011 
56250 5.05725E+011 
56300 5.02393E+011 
56350 4.99082E+011 
56400 4.95794E+011 
56450 4.92526E+011 
56500 4.8928E+011 
56550 4.86055E+011 
56600 4.82851E+011 
56650 4.79667E+011 
56700 4.76505E+011 
56750 4.73363E+011 
56800 4.70241E+011 
56850 4.6714E+011 
56900 4.64059E+011 
56950 4.60998E+011 
57000 4.57957E+011 
57050 4.54936E+011 
57100 4.51934E+011 
57150 4.48952E+011 
57200 4.4599E+011 
57250 4.43046E+011 
57300 4.40122E+011 
57350 4.37217E+011 
57400 4.34331E+011 
57450 4.31464E+011 
57500 4.28615E+011 
57550 4.25785E+011 
57600 4.22974E+011 
57650 4.20181E+011 
57700 4.17406E+011 
57750 4.14649E+011 
57800 4.1191E+011 
57850 4.09189E+011 
57900 4.06485E+011 
57950 4.038E+011 
58000 4.01132E+011 
58050 3.98481E+011 
58100 3.95848E+011 
58150 3.93231E+011 
58200 3.90632E+011 
58250 3.8805E+011 
58300 3.85485E+011 
58350 3.82936E+011 
58400 3.80404E+011 
58450 3.77889E+011 
58500 3.7539E+011 
58550 3.72908E+011 
58600 3.70441E+011 
58650 3.67991E+011 
58700 3.65557E+011 
58750 3.63139E+011 
58800 3.60736E+011 
58850 3.58349E+011 
58900 3.55978E+011 
58950 3.53622E+011 
59000 3.51282E+011 
59050 3.48957E+011 
59100 3.46647E+011 
59150 3.44353E+011 
59200 3.42073E+011 
59250 3.39808E+011 
59300 3.37559E+011 
59350 3.35323E+011 
59400 3.33103E+011 
59450 3.30897E+011 
59500 3.28705E+011 
59550 3.26528E+011 
59600 3.24365E+011 
59650 3.22216E+011 
59700 3.20082E+011 
59750 3.17961E+011 
59800 3.15854E+011 
59850 3.13761E+011 
59900 3.11682E+011 
59950 3.09616E+011 
60000 3.07564E+011 
60050 3.05525E+011 
60100 3.035E+011 
60150 3.01488E+011 
60200 2.99489E+011 
60250 2.97503E+011 
60300 2.95531E+011 
60350 2.93571E+011 
60400 2.91624E+011 
60450 2.8969E+011 
60500 2.87768E+011 
60550 2.85859E+011 
60600 2.83963E+011 
60650 2.82079E+011 
60700 2.80207E+011 
60750 2.78348E+011 
60800 2.76501E+011 
60850 2.74666E+011 
60900 2.72843E+011 
60950 2.71033E+011 
61000 2.69234E+011 
61050 2.67446E+011 
61100 2.65671E+011 
61150 2.63907E+011 
61200 2.62155E+011 
61250 2.60414E+011 
61300 2.58685E+011 
61350 2.56967E+011 
61400 2.5526E+011 
61450 2.53565E+011 
61500 2.51881E+011 
61550 2.50207E+011 
61600 2.48545E+011 
61650 2.46894E+011 
61700 2.45254E+011 
61750 2.43624E+011 
61800 2.42005E+011 
61850 2.40397E+011 
61900 2.38799E+011 
61950 2.37212E+011 
62000 2.35635E+011 
62050 2.34069E+011 
62100 2.32513E+011 
62150 2.30967E+011 
62200 2.29431E+011 
62250 2.27906E+011 
62300 2.2639E+011 
62350 2.24885E+011 
62400 2.23389E+011 
62450 2.21903E+011 
62500 2.20427E+011 
62550 2.18961E+011 
62600 2.17504E+011 
62650 2.16057E+011 
62700 2.1462E+011 
62750 2.13192E+011 
62800 2.11773E+011 
62850 2.10364E+011 
62900 2.08964E+011 
62950 2.07573E+011 
63000 2.06192E+011 
63050 2.04819E+011 
63100 2.03456E+011 
63150 2.02102E+011 
63200 2.00756E+011 
63250 1.99419E+011 
63300 1.98092E+011 
63350 1.96772E+011 
63400 1.95462E+011 
63450 1.9416E+011 
63500 1.92867E+011 
63550 1.91583E+011 
63600 1.90306E+011 
63650 1.89039E+011 
63700 1.87779E+011 
63750 1.86528E+011 
63800 1.85285E+011 
63850 1.84051E+011 
63900 1.82825E+011 
63950 1.81606E+011 
64000 1.80396E+011 
64050 1.79193E+011 
64100 1.77999E+011 
64150 1.76813E+011 
64200 1.75634E+011 
64250 1.74463E+011 
64300 1.733E+011 
64350 1.72145E+011 
64400 1.70997E+011 
64450 1.69856E+011 
64500 1.68724E+011 
64550 1.67599E+011 
64600 1.66481E+011 
64650 1.6537E+011 
64700 1.64267E+011 
64750 1.63172E+011 
64800 1.62083E+011 
64850 1.61002E+011 
64900 1.59928E+011 
64950 1.5886E+011 
65000 1.578E+011 
65050 1.56747E+011 
65100 1.55701E+011 
65150 1.54662E+011 
65200 1.5363E+011 
65250 1.52605E+011 
65300 1.51586E+011 
65350 1.50574E+011 
65400 1.49569E+011 
65450 1.4857E+011 
65500 1.47578E+011 
65550 1.46593E+011 
65600 1.45614E+011 
65650 1.44642E+011 
65700 1.43676E+011 
65750 1.42716E+011 
65800 1.41763E+011 
65850 1.40816E+011 
65900 1.39875E+011 
65950 1.38941E+011 
66000 1.38013E+011 
66050 1.37091E+011 
66100 1.36175E+011 
66150 1.35265E+011 
66200 1.34361E+011 
66250 1.33463E+011 
66300 1.32571E+011 
66350 1.31685E+011 
66400 1.30805E+011 
66450 1.29931E+011 
66500 1.29062E+011 
66550 1.28199E+011 
66600 1.27342E+011 
66650 1.26491E+011 
66700 1.25645E+011 
66750 1.24805E+011 
66800 1.23971E+011 
66850 1.23142E+011 
66900 1.22318E+011 
66950 1.215E+011 
67000 1.20688E+011 
67050 1.1988E+011 
67100 1.19078E+011 
67150 1.18282E+011 
67200 1.1749E+011 
67250 1.16705E+011 
67300 1.15924E+011 
67350 1.15148E+011 
67400 1.14378E+011 
67450 1.13612E+011 
67500 1.12852E+011 
67550 1.12097E+011 
67600 1.11346E+011 
67650 1.10601E+011 
67700 1.09861E+011 
67750 1.09126E+011 
67800 1.08395E+011 
67850 1.07669E+011 
67900 1.06949E+011 
67950 1.06232E+011 
68000 1.05521E+011 
68050 1.04815E+011 
68100 1.04113E+011 
68150 1.03415E+011 
68200 1.02723E+011 
68250 1.02035E+011 
68300 1.01352E+011 
68350 1.00673E+011 
68400 9.99983E+010 
68450 9.93285E+010 
68500 9.8663E+010 
68550 9.80021E+010 
68600 9.73454E+010 
68650 9.66932E+010 
68700 9.60453E+010 
68750 9.54017E+010 
68800 9.47624E+010 
68850 9.41273E+010 
68900 9.34965E+010 
68950 9.28698E+010 
69000 9.22474E+010 
69050 9.1629E+010 
69100 9.10148E+010 
69150 9.04047E+010 
69200 8.97986E+010 
69250 8.91965E+010 
69300 8.85985E+010 
69350 8.80044E+010 
69400 8.74143E+010 
69450 8.68281E+010 
69500 8.62458E+010 
69550 8.56674E+010 
69600 8.50929E+010 
69650 8.45221E+010 
69700 8.39552E+010 
69750 8.3392E+010 
69800 8.28326E+010 
69850 8.22769E+010 
69900 8.1725E+010 
69950 8.11766E+010 
70000 8.0632E+010 
70050 8.0091E+010 
70100 7.95535E+010 
70150 7.90197E+010 
70200 7.84894E+010 
70250 7.79626E+010 
70300 7.74394E+010 
70350 7.69196E+010 
70400 7.64033E+010 
70450 7.58905E+010 
70500 7.5381E+010 
70550 7.4875E+010 
70600 7.43723E+010 
70650 7.3873E+010 
70700 7.3377E+010 
70750 7.28843E+010 
70800 7.23949E+010 
70850 7.19087E+010 
70900 7.14258E+010 
70950 7.09461E+010 
71000 7.04697E+010 
71050 6.99963E+010 
71100 6.95262E+010 
71150 6.90592E+010 
71200 6.85953E+010 
71250 6.81345E+010 
71300 6.76767E+010 
71350 6.72221E+010 
71400 6.67704E+010 
71450 6.63218E+010 
71500 6.58761E+010 
71550 6.54335E+010 
71600 6.49938E+010 
71650 6.4557E+010 
71700 6.41231E+010 
71750 6.36922E+010 
71800 6.32641E+010 
71850 6.28388E+010 
71900 6.24164E+010 
71950 6.19969E+010 
72000 6.15801E+010 
72050 6.11661E+010 
72100 6.07549E+010 
72150 6.03464E+010 
72200 5.99406E+010 
72250 5.95376E+010 
72300 5.91372E+010 
72350 5.87396E+010 
72400 5.83446E+010 
72450 5.79522E+010 
72500 5.75624E+010 
72550 5.71752E+010 
72600 5.67907E+010 
72650 5.64087E+010 
72700 5.60292E+010 
72750 5.56523E+010 
72800 5.52779E+010 
72850 5.4906E+010 
72900 5.45366E+010 
72950 5.41697E+010 
73000 5.38052E+010 
73050 5.34431E+010 
73100 5.30835E+010 
73150 5.27263E+010 
73200 5.23714E+010 
73250 5.2019E+010 
73300 5.16688E+010 
73350 5.13211E+010 
73400 5.09756E+010 
73450 5.06325E+010 
73500 5.02917E+010 
73550 4.99531E+010 
73600 4.96168E+010 
73650 4.92828E+010 
73700 4.8951E+010 
73750 4.86214E+010 
73800 4.8294E+010 
73850 4.79688E+010 
73900 4.76457E+010 
73950 4.73249E+010 
74000 4.70062E+010 
74050 4.66896E+010 
74100 4.63751E+010 
74150 4.60628E+010 
74200 4.57525E+010 
74250 4.54443E+010 
74300 4.51382E+010 
74350 4.48341E+010 
74400 4.45321E+010 
74450 4.42321E+010 
74500 4.3934E+010 
74550 4.3638E+010 
74600 4.3344E+010 
74650 4.30519E+010 
74700 4.27618E+010 
74750 4.24737E+010 
74800 4.21874E+010 
74850 4.19031E+010 
74900 4.16207E+010 
74950 4.13402E+010 
75000 4.10615E+010 
75050 4.07847E+010 
75100 4.05098E+010 
75150 4.02367E+010 
75200 3.99655E+010 
75250 3.96961E+010 
75300 3.94284E+010 
75350 3.91626E+010 
75400 3.88985E+010 
75450 3.86363E+010 
75500 3.83757E+010 
75550 3.8117E+010 
75600 3.78599E+010 
75650 3.76046E+010 
75700 3.7351E+010 
75750 3.70991E+010 
75800 3.68488E+010 
75850 3.66003E+010 
75900 3.63534E+010 
75950 3.61082E+010 
76000 3.58646E+010 
76050 3.56227E+010 
76100 3.53823E+010 
76150 3.51436E+010 
76200 3.49065E+010 
76250 3.4671E+010 
76300 3.44371E+010 
76350 3.42047E+010 
76400 3.39739E+010 
76450 3.37446E+010 
76500 3.35169E+010 
76550 3.32907E+010 
76600 3.3066E+010 
76650 3.28428E+010 
76700 3.26212E+010 
76750 3.2401E+010 
76800 3.21823E+010 
76850 3.1965E+010 
76900 3.17492E+010 
76950 3.15349E+010 
77000 3.1322E+010 
77050 3.11105E+010 
77100 3.09005E+010 
77150 3.06919E+010 
77200 3.04846E+010 
77250 3.02788E+010 
77300 3.00743E+010 
77350 2.98712E+010 
77400 2.96695E+010 
77450 2.94691E+010 
77500 2.92701E+010 
77550 2.90724E+010 
77600 2.88761E+010 
77650 2.8681E+010 
77700 2.84873E+010 
77750 2.82948E+010 
77800 2.81037E+010 
77850 2.79139E+010 
77900 2.77253E+010 
77950 2.7538E+010 
78000 2.73519E+010 
78050 2.71671E+010 
78100 2.69835E+010 
78150 2.68012E+010 
78200 2.66201E+010 
78250 2.64402E+010 
78300 2.62615E+010 
78350 2.60841E+010 
78400 2.59078E+010 
78450 2.57327E+010 
78500 2.55588E+010 
78550 2.5386E+010 
78600 2.52144E+010 
78650 2.5044E+010 
78700 2.48747E+010 
78750 2.47065E+010 
78800 2.45395E+010 
78850 2.43736E+010 
78900 2.42088E+010 
78950 2.40452E+010 
79000 2.38826E+010 
79050 2.37211E+010 
79100 2.35607E+010 
79150 2.34014E+010 
79200 2.32431E+010 
79250 2.3086E+010 
79300 2.29298E+010 
79350 2.27747E+010 
79400 2.26207E+010 
79450 2.24677E+010 
79500 2.23158E+010 
79550 2.21648E+010 
79600 2.20149E+010 
79650 2.1866E+010 
79700 2.17181E+010 
79750 2.15711E+010 
79800 2.14252E+010 
79850 2.12803E+010 
79900 2.11363E+010 
79950 2.09933E+010 
80000 2.08512E+010 
80050 2.07102E+010 
80100 2.057E+010 
80150 2.04308E+010 
80200 2.02926E+010 
80250 2.01552E+010 
80300 2.00188E+010 
80350 1.98834E+010 
80400 1.97488E+010 
80450 1.96151E+010 
80500 1.94824E+010 
80550 1.93505E+010 
80600 1.92195E+010 
80650 1.90894E+010 
80700 1.89602E+010 
80750 1.88318E+010 
80800 1.87043E+010 
80850 1.85777E+010 
80900 1.84519E+010 
80950 1.8327E+010 
81000 1.82029E+010 
81050 1.80797E+010 
81100 1.79572E+010 
81150 1.78357E+010 
81200 1.77149E+010 
81250 1.75949E+010 
81300 1.74758E+010 
81350 1.73574E+010 
81400 1.72399E+010 
81450 1.71231E+010 
81500 1.70071E+010 
81550 1.68919E+010 
81600 1.67775E+010 
81650 1.66639E+010 
81700 1.6551E+010 
81750 1.64389E+010 
81800 1.63275E+010 
81850 1.62169E+010 
81900 1.6107E+010 
81950 1.59979E+010 
82000 1.58895E+010 
82050 1.57819E+010 
82100 1.56749E+010 
82150 1.55687E+010 
82200 1.54632E+010 
82250 1.53584E+010 
82300 1.52543E+010 
82350 1.5151E+010 
82400 1.50483E+010 
82450 1.49463E+010 
82500 1.4845E+010 
82550 1.47444E+010 
82600 1.46445E+010 
82650 1.45452E+010 
82700 1.44466E+010 
82750 1.43487E+010 
82800 1.42514E+010 
82850 1.41548E+010 
82900 1.40589E+010 
82950 1.39635E+010 
83000 1.38689E+010 
83050 1.37748E+010 
83100 1.36814E+010 
83150 1.35887E+010 
83200 1.34966E+010 
83250 1.3405E+010 
83300 1.33141E+010 
83350 1.32238E+010 
83400 1.31342E+010 
83450 1.30451E+010 
83500 1.29566E+010 
83550 1.28688E+010 
83600 1.27815E+010 
83650 1.26948E+010 
83700 1.26087E+010 
83750 1.25232E+010 
83800 1.24382E+010 
83850 1.23539E+010 
83900 1.22701E+010 
83950 1.21868E+010 
84000 1.21042E+010 
84050 1.2022E+010 
84100 1.19405E+010 
84150 1.18595E+010 
84200 1.1779E+010 
84250 1.16991E+010 
84300 1.16197E+010 
84350 1.15409E+010 
84400 1.14625E+010 
84450 1.13848E+010 
84500 1.13075E+010 
84550 1.12308E+010 
84600 1.11546E+010 
84650 1.10789E+010 
84700 1.10037E+010 
84750 1.0929E+010 
84800 1.08548E+010 
84850 1.07812E+010 
84900 1.0708E+010 
84950 1.06353E+010 
85000 1.05631E+010 
85050 1.04914E+010 
85100 1.04202E+010 
85150 1.03494E+010 
85200 1.02792E+010 
85250 1.02094E+010 
85300 1.01401E+010 
85350 1.00712E+010 
85400 1.00029E+010 
85450 9.93494E+009 
85500 9.86749E+009 
85550 9.80048E+009 
85600 9.73394E+009 
85650 9.66784E+009 
85700 9.60219E+009 
85750 9.53698E+009 
85800 9.47221E+009 
85850 9.40789E+009 
85900 9.34399E+009 
85950 9.28053E+009 
86000 9.2175E+009 
86050 9.15489E+009 
86100 9.09271E+009 
86150 9.03095E+009 
86200 8.96961E+009 
86250 8.90868E+009 
86300 8.84816E+009 
86350 8.78805E+009 
86400 8.72835E+009 
86450 8.66905E+009 
86500 8.61016E+009 
86550 8.55166E+009 
86600 8.49356E+009 
86650 8.43585E+009 
86700 8.37853E+009 
86750 8.32161E+009 
86800 8.26506E+009 
86850 8.2089E+009 
86900 8.15312E+009 
86950 8.09771E+009 
87000 8.04268E+009 
87050 7.98803E+009 
87100 7.93374E+009 
87150 7.87982E+009 
87200 7.82627E+009 
87250 7.77307E+009 
87300 7.72024E+009 
87350 7.66777E+009 
87400 7.61565E+009 
87450 7.56388E+009 
87500 7.51247E+009 
87550 7.4614E+009 
87600 7.41068E+009 
87650 7.3603E+009 
87700 7.31026E+009 
87750 7.26056E+009 
87800 7.2112E+009 
87850 7.16217E+009 
87900 7.11348E+009 
87950 7.06511E+009 
88000 7.01707E+009 
88050 6.96936E+009 
88100 6.92197E+009 
88150 6.8749E+009 
88200 6.82815E+009 
88250 6.78172E+009 
88300 6.7356E+009 
88350 6.68979E+009 
88400 6.6443E+009 
88450 6.59911E+009 
88500 6.55423E+009 
88550 6.50965E+009 
88600 6.46537E+009 
88650 6.4214E+009 
88700 6.37772E+009 
88750 6.33434E+009 
88800 6.29125E+009 
88850 6.24845E+009 
88900 6.20595E+009 
88950 6.16373E+009 
89000 6.1218E+009 
89050 6.08015E+009 
89100 6.03879E+009 
89150 5.9977E+009 
89200 5.95689E+009 
89250 5.91636E+009 
89300 5.87611E+009 
89350 5.83613E+009 
89400 5.79642E+009 
89450 5.75697E+009 
89500 5.7178E+009 
89550 5.67889E+009 
89600 5.64025E+009 
89650 5.60186E+009 
89700 5.56374E+009 
89750 5.52587E+009 
89800 5.48827E+009 
89850 5.45091E+009 
89900 5.41381E+009 
89950 5.37697E+009 
90000 5.34037E+009 
90050 5.30402E+009 
90100 5.26791E+009 
90150 5.23206E+009 
90200 5.19644E+009 
90250 5.16107E+009 
90300 5.12593E+009 
90350 5.09104E+009 
90400 5.05638E+009 
90450 5.02196E+009 
90500 4.98777E+009 
90550 4.95381E+009 
90600 4.92008E+009 
90650 4.88658E+009 
90700 4.85331E+009 
90750 4.82026E+009 
90800 4.78744E+009 
90850 4.75484E+009 
90900 4.72246E+009 
90950 4.69031E+009 
91000 4.65836E+009 
91050 4.62664E+009 
91100 4.59513E+009 
91150 4.56384E+009 
91200 4.53276E+009 
91250 4.50189E+009 
91300 4.47122E+009 
91350 4.44077E+009 
91400 4.41052E+009 
91450 4.38048E+009 
91500 4.35065E+009 
91550 4.32101E+009 
91600 4.29158E+009 
91650 4.26234E+009 
91700 4.23331E+009 
91750 4.20447E+009 
91800 4.17583E+009 
91850 4.14738E+009 
91900 4.11912E+009 
91950 4.09106E+009 
92000 4.06319E+009 
92050 4.0355E+009 
92100 4.00801E+009 
92150 3.9807E+009 
92200 3.95357E+009 
92250 3.92664E+009 
92300 3.89988E+009 
92350 3.87331E+009 
92400 3.84691E+009 
92450 3.8207E+009 
92500 3.79466E+009 
92550 3.7688E+009 
92600 3.74312E+009 
92650 3.71761E+009 
92700 3.69227E+009 
92750 3.6671E+009 
92800 3.64211E+009 
92850 3.61729E+009 
92900 3.59263E+009 
92950 3.56814E+009 
93000 3.54382E+009 
93050 3.51967E+009 
93100 3.49567E+009 
93150 3.47185E+009 
93200 3.44818E+009 
93250 3.42467E+009 
93300 3.40133E+009 
93350 3.37814E+009 
93400 3.35511E+009 
93450 3.33223E+009 
93500 3.30951E+009 
93550 3.28695E+009 
93600 3.26454E+009 
93650 3.24228E+009 
93700 3.22017E+009 
93750 3.19822E+009 
93800 3.17641E+009 
93850 3.15475E+009 
93900 3.13324E+009 
93950 3.11187E+009 
94000 3.09065E+009 
94050 3.06957E+009 
94100 3.04864E+009 
94150 3.02785E+009 
94200 3.0072E+009 
94250 2.98669E+009 
94300 2.96632E+009 
94350 2.94609E+009 
94400 2.92599E+009 
94450 2.90604E+009 
94500 2.88622E+009 
94550 2.86653E+009 
94600 2.84698E+009 
94650 2.82756E+009 
94700 2.80827E+009 
94750 2.78911E+009 
94800 2.77009E+009 
94850 2.75119E+009 
94900 2.73242E+009 
94950 2.71378E+009 
95000 2.69526E+009 
95050 2.67688E+009 
95100 2.65861E+009 
95150 2.64047E+009 
95200 2.62246E+009 
95250 2.60456E+009 
95300 2.58679E+009 
95350 2.56914E+009 
95400 2.55161E+009 
95450 2.5342E+009 
95500 2.51691E+009 
95550 2.49973E+009 
95600 2.48267E+009 
95650 2.46573E+009 
95700 2.4489E+009 
95750 2.43219E+009 
95800 2.41559E+009 
95850 2.39911E+009 
95900 2.38273E+009 
95950 2.36647E+009 
96000 2.35032E+009 
96050 2.33428E+009 
96100 2.31835E+009 
96150 2.30252E+009 
96200 2.2868E+009 
96250 2.2712E+009 
96300 2.25569E+009 
96350 2.24029E+009 
96400 2.225E+009 
96450 2.20981E+009 
96500 2.19473E+009 
96550 2.17975E+009 
96600 2.16486E+009 
96650 2.15008E+009 
96700 2.13541E+009 
96750 2.12083E+009 
96800 2.10635E+009 
96850 2.09197E+009 
96900 2.07768E+009 
96950 2.0635E+009 
97000 2.04941E+009 
97050 2.03541E+009 
97100 2.02151E+009 
97150 2.00771E+009 
97200 1.994E+009 
97250 1.98038E+009 
97300 1.96686E+009 
97350 1.95343E+009 
97400 1.94009E+009 
97450 1.92684E+009 
97500 1.91368E+009 
97550 1.90061E+009 
97600 1.88763E+009 
97650 1.87474E+009 
97700 1.86193E+009 
97750 1.84922E+009 
97800 1.83659E+009 
97850 1.82404E+009 
97900 1.81158E+009 
97950 1.79921E+009 
98000 1.78692E+009 
98050 1.77471E+009 
98100 1.76259E+009 
98150 1.75055E+009 
98200 1.73859E+009 
98250 1.72671E+009 
98300 1.71492E+009 
98350 1.7032E+009 
98400 1.69157E+009 
98450 1.68001E+009 
98500 1.66853E+009 
98550 1.65713E+009 
98600 1.64581E+009 
98650 1.63456E+009 
98700 1.6234E+009 
98750 1.6123E+009 
98800 1.60129E+009 
98850 1.59035E+009 
98900 1.57948E+009 
98950 1.56869E+009 
99000 1.55797E+009 
99050 1.54732E+009 
99100 1.53675E+009 
99150 1.52624E+009 
99200 1.51582E+009 
99250 1.50546E+009 
99300 1.49517E+009 
99350 1.48495E+009 
99400 1.4748E+009 
99450 1.46472E+009 
99500 1.45471E+009 
99550 1.44477E+009 
99600 1.43489E+009 
99650 1.42509E+009 
99700 1.41534E+009 
99750 1.40567E+009 
99800 1.39606E+009 
99850 1.38652E+009 
99900 1.37704E+009 
99950 1.36763E+009 
100000 1.35828E+009 
