#F U:\Beamline I20\I20-2_EDE\Wigglers\xop\83mm-small-wiggler\EDE wiggler\1p3T-300mA-0p12x1p0mrad.dat
#C I20EDE 1.3T 300mA 0.12x1.0mrad
#S 1 File written by xplot on Tue Dec 07 17:59:38 2010
#N 2
#L    Energy [eV]  Flux [ph/s/0.1%bw]
50 6.5491E+012 
100 1.03893E+013 
150 1.35973E+013 
200 1.6446E+013 
250 1.90484E+013 
300 2.14656E+013 
350 2.37349E+013 
400 2.58816E+013 
450 2.79236E+013 
500 2.98745E+013 
550 3.17446E+013 
600 3.3542E+013 
650 3.52735E+013 
700 3.69446E+013 
750 3.85599E+013 
800 4.01234E+013 
850 4.16384E+013 
900 4.31079E+013 
950 4.45345E+013 
1000 4.59204E+013 
1050 4.72678E+013 
1100 4.85784E+013 
1150 4.98539E+013 
1200 5.10958E+013 
1250 5.23055E+013 
1300 5.34842E+013 
1350 5.4633E+013 
1400 5.57532E+013 
1450 5.68455E+013 
1500 5.7911E+013 
1550 5.89505E+013 
1600 5.99648E+013 
1650 6.09547E+013 
1700 6.19208E+013 
1750 6.28639E+013 
1800 6.37845E+013 
1850 6.46833E+013 
1900 6.55608E+013 
1950 6.64175E+013 
2000 6.7254E+013 
2050 6.80708E+013 
2100 6.88683E+013 
2150 6.9647E+013 
2200 7.04073E+013 
2250 7.11496E+013 
2300 7.18742E+013 
2350 7.25817E+013 
2400 7.32723E+013 
2450 7.39464E+013 
2500 7.46043E+013 
2550 7.52463E+013 
2600 7.58729E+013 
2650 7.64842E+013 
2700 7.70805E+013 
2750 7.76623E+013 
2800 7.82296E+013 
2850 7.87829E+013 
2900 7.93223E+013 
2950 7.98482E+013 
3000 8.03607E+013 
3050 8.08601E+013 
3100 8.13466E+013 
3150 8.18205E+013 
3200 8.2282E+013 
3250 8.27313E+013 
3300 8.31686E+013 
3350 8.35942E+013 
3400 8.40081E+013 
3450 8.44107E+013 
3500 8.4802E+013 
3550 8.51824E+013 
3600 8.55519E+013 
3650 8.59108E+013 
3700 8.62592E+013 
3750 8.65974E+013 
3800 8.69253E+013 
3850 8.72434E+013 
3900 8.75516E+013 
3950 8.78502E+013 
4000 8.81392E+013 
4050 8.8419E+013 
4100 8.86895E+013 
4150 8.8951E+013 
4200 8.92037E+013 
4250 8.94475E+013 
4300 8.96827E+013 
4350 8.99094E+013 
4400 9.01278E+013 
4450 9.0338E+013 
4500 9.054E+013 
4550 9.07341E+013 
4600 9.09203E+013 
4650 9.10988E+013 
4700 9.12697E+013 
4750 9.14332E+013 
4800 9.15892E+013 
4850 9.1738E+013 
4900 9.18797E+013 
4950 9.20143E+013 
5000 9.2142E+013 
5050 9.22628E+013 
5100 9.2377E+013 
5150 9.24845E+013 
5200 9.25856E+013 
5250 9.26802E+013 
5300 9.27685E+013 
5350 9.28506E+013 
5400 9.29266E+013 
5450 9.29966E+013 
5500 9.30607E+013 
5550 9.31189E+013 
5600 9.31713E+013 
5650 9.32181E+013 
5700 9.32594E+013 
5750 9.32951E+013 
5800 9.33254E+013 
5850 9.33505E+013 
5900 9.33703E+013 
5950 9.33849E+013 
6000 9.33945E+013 
6050 9.3399E+013 
6100 9.33987E+013 
6150 9.33936E+013 
6200 9.33836E+013 
6250 9.3369E+013 
6300 9.33498E+013 
6350 9.3326E+013 
6400 9.32977E+013 
6450 9.32651E+013 
6500 9.32281E+013 
6550 9.31869E+013 
6600 9.31415E+013 
6650 9.30919E+013 
6700 9.30383E+013 
6750 9.29807E+013 
6800 9.29192E+013 
6850 9.28538E+013 
6900 9.27846E+013 
6950 9.27117E+013 
7000 9.26351E+013 
7050 9.25548E+013 
7100 9.2471E+013 
7150 9.23837E+013 
7200 9.2293E+013 
7250 9.21989E+013 
7300 9.21014E+013 
7350 9.20006E+013 
7400 9.18967E+013 
7450 9.17896E+013 
7500 9.16793E+013 
7550 9.1566E+013 
7600 9.14497E+013 
7650 9.13304E+013 
7700 9.12083E+013 
7750 9.10832E+013 
7800 9.09554E+013 
7850 9.08248E+013 
7900 9.06915E+013 
7950 9.05555E+013 
8000 9.04169E+013 
8050 9.02758E+013 
8100 9.01321E+013 
8150 8.99859E+013 
8200 8.98373E+013 
8250 8.96863E+013 
8300 8.9533E+013 
8350 8.93773E+013 
8400 8.92194E+013 
8450 8.90593E+013 
8500 8.8897E+013 
8550 8.87326E+013 
8600 8.8566E+013 
8650 8.83974E+013 
8700 8.82268E+013 
8750 8.80542E+013 
8800 8.78796E+013 
8850 8.77032E+013 
8900 8.75248E+013 
8950 8.73447E+013 
9000 8.71627E+013 
9050 8.6979E+013 
9100 8.67936E+013 
9150 8.66064E+013 
9200 8.64177E+013 
9250 8.62273E+013 
9300 8.60353E+013 
9350 8.58417E+013 
9400 8.56466E+013 
9450 8.54501E+013 
9500 8.5252E+013 
9550 8.50526E+013 
9600 8.48518E+013 
9650 8.46495E+013 
9700 8.4446E+013 
9750 8.42411E+013 
9800 8.4035E+013 
9850 8.38276E+013 
9900 8.3619E+013 
9950 8.34093E+013 
10000 8.31983E+013 
10050 8.29862E+013 
10100 8.2773E+013 
10150 8.25588E+013 
10200 8.23434E+013 
10250 8.21271E+013 
10300 8.19097E+013 
10350 8.16914E+013 
10400 8.14721E+013 
10450 8.12519E+013 
10500 8.10308E+013 
10550 8.08089E+013 
10600 8.0586E+013 
10650 8.03623E+013 
10700 8.01379E+013 
10750 7.99126E+013 
10800 7.96866E+013 
10850 7.94598E+013 
10900 7.92324E+013 
10950 7.90042E+013 
11000 7.87754E+013 
11050 7.85459E+013 
11100 7.83157E+013 
11150 7.8085E+013 
11200 7.78537E+013 
11250 7.76218E+013 
11300 7.73893E+013 
11350 7.71564E+013 
11400 7.69229E+013 
11450 7.66889E+013 
11500 7.64545E+013 
11550 7.62195E+013 
11600 7.59842E+013 
11650 7.57484E+013 
11700 7.55123E+013 
11750 7.52757E+013 
11800 7.50388E+013 
11850 7.48016E+013 
11900 7.4564E+013 
11950 7.43261E+013 
12000 7.40879E+013 
12050 7.38494E+013 
12100 7.36106E+013 
12150 7.33716E+013 
12200 7.31324E+013 
12250 7.28929E+013 
12300 7.26533E+013 
12350 7.24134E+013 
12400 7.21734E+013 
12450 7.19332E+013 
12500 7.16929E+013 
12550 7.14524E+013 
12600 7.12118E+013 
12650 7.09711E+013 
12700 7.07303E+013 
12750 7.04895E+013 
12800 7.02486E+013 
12850 7.00076E+013 
12900 6.97666E+013 
12950 6.95255E+013 
13000 6.92845E+013 
13050 6.90434E+013 
13100 6.88024E+013 
13150 6.85613E+013 
13200 6.83203E+013 
13250 6.80794E+013 
13300 6.78385E+013 
13350 6.75976E+013 
13400 6.73569E+013 
13450 6.71162E+013 
13500 6.68757E+013 
13550 6.66352E+013 
13600 6.63949E+013 
13650 6.61547E+013 
13700 6.59146E+013 
13750 6.56747E+013 
13800 6.5435E+013 
13850 6.51954E+013 
13900 6.4956E+013 
13950 6.47168E+013 
14000 6.44778E+013 
14050 6.42389E+013 
14100 6.40004E+013 
14150 6.3762E+013 
14200 6.35239E+013 
14250 6.3286E+013 
14300 6.30483E+013 
14350 6.28109E+013 
14400 6.25738E+013 
14450 6.2337E+013 
14500 6.21004E+013 
14550 6.18641E+013 
14600 6.16282E+013 
14650 6.13925E+013 
14700 6.11571E+013 
14750 6.09221E+013 
14800 6.06874E+013 
14850 6.0453E+013 
14900 6.02189E+013 
14950 5.99852E+013 
15000 5.97519E+013 
15050 5.95189E+013 
15100 5.92863E+013 
15150 5.90541E+013 
15200 5.88222E+013 
15250 5.85907E+013 
15300 5.83596E+013 
15350 5.81289E+013 
15400 5.78986E+013 
15450 5.76687E+013 
15500 5.74393E+013 
15550 5.72102E+013 
15600 5.69816E+013 
15650 5.67534E+013 
15700 5.65256E+013 
15750 5.62983E+013 
15800 5.60714E+013 
15850 5.5845E+013 
15900 5.5619E+013 
15950 5.53935E+013 
16000 5.51684E+013 
16050 5.49438E+013 
16100 5.47197E+013 
16150 5.44961E+013 
16200 5.42729E+013 
16250 5.40502E+013 
16300 5.3828E+013 
16350 5.36064E+013 
16400 5.33852E+013 
16450 5.31645E+013 
16500 5.29443E+013 
16550 5.27246E+013 
16600 5.25054E+013 
16650 5.22868E+013 
16700 5.20686E+013 
16750 5.1851E+013 
16800 5.16339E+013 
16850 5.14174E+013 
16900 5.12014E+013 
16950 5.09859E+013 
17000 5.07709E+013 
17050 5.05565E+013 
17100 5.03426E+013 
17150 5.01293E+013 
17200 4.99165E+013 
17250 4.97043E+013 
17300 4.94926E+013 
17350 4.92815E+013 
17400 4.9071E+013 
17450 4.8861E+013 
17500 4.86516E+013 
17550 4.84427E+013 
17600 4.82344E+013 
17650 4.80267E+013 
17700 4.78196E+013 
17750 4.7613E+013 
17800 4.7407E+013 
17850 4.72016E+013 
17900 4.69968E+013 
17950 4.67926E+013 
18000 4.65889E+013 
18050 4.63858E+013 
18100 4.61833E+013 
18150 4.59814E+013 
18200 4.57801E+013 
18250 4.55794E+013 
18300 4.53793E+013 
18350 4.51798E+013 
18400 4.49809E+013 
18450 4.47825E+013 
18500 4.45848E+013 
18550 4.43877E+013 
18600 4.41912E+013 
18650 4.39953E+013 
18700 4.37999E+013 
18750 4.36052E+013 
18800 4.34111E+013 
18850 4.32176E+013 
18900 4.30248E+013 
18950 4.28325E+013 
19000 4.26408E+013 
19050 4.24497E+013 
19100 4.22593E+013 
19150 4.20695E+013 
19200 4.18803E+013 
19250 4.16917E+013 
19300 4.15037E+013 
19350 4.13163E+013 
19400 4.11295E+013 
19450 4.09434E+013 
19500 4.07578E+013 
19550 4.05729E+013 
19600 4.03886E+013 
19650 4.02049E+013 
19700 4.00219E+013 
19750 3.98394E+013 
19800 3.96576E+013 
19850 3.94764E+013 
19900 3.92958E+013 
19950 3.91158E+013 
20000 3.89365E+013 
20050 3.87577E+013 
20100 3.85796E+013 
20150 3.84021E+013 
20200 3.82253E+013 
20250 3.8049E+013 
20300 3.78733E+013 
20350 3.76983E+013 
20400 3.75239E+013 
20450 3.73501E+013 
20500 3.71769E+013 
20550 3.70044E+013 
20600 3.68324E+013 
20650 3.66611E+013 
20700 3.64904E+013 
20750 3.63203E+013 
20800 3.61509E+013 
20850 3.5982E+013 
20900 3.58138E+013 
20950 3.56461E+013 
21000 3.54791E+013 
21050 3.53127E+013 
21100 3.51469E+013 
21150 3.49818E+013 
21200 3.48172E+013 
21250 3.46533E+013 
21300 3.44899E+013 
21350 3.43272E+013 
21400 3.41651E+013 
21450 3.40036E+013 
21500 3.38427E+013 
21550 3.36824E+013 
21600 3.35227E+013 
21650 3.33636E+013 
21700 3.32051E+013 
21750 3.30473E+013 
21800 3.289E+013 
21850 3.27333E+013 
21900 3.25773E+013 
21950 3.24218E+013 
22000 3.22669E+013 
22050 3.21127E+013 
22100 3.1959E+013 
22150 3.1806E+013 
22200 3.16535E+013 
22250 3.15016E+013 
22300 3.13503E+013 
22350 3.11997E+013 
22400 3.10496E+013 
22450 3.09001E+013 
22500 3.07512E+013 
22550 3.06028E+013 
22600 3.04551E+013 
22650 3.0308E+013 
22700 3.01614E+013 
22750 3.00155E+013 
22800 2.98701E+013 
22850 2.97253E+013 
22900 2.95811E+013 
22950 2.94374E+013 
23000 2.92944E+013 
23050 2.91519E+013 
23100 2.901E+013 
23150 2.88686E+013 
23200 2.87279E+013 
23250 2.85877E+013 
23300 2.84481E+013 
23350 2.83091E+013 
23400 2.81706E+013 
23450 2.80327E+013 
23500 2.78954E+013 
23550 2.77587E+013 
23600 2.76225E+013 
23650 2.74868E+013 
23700 2.73518E+013 
23750 2.72173E+013 
23800 2.70833E+013 
23850 2.69499E+013 
23900 2.68171E+013 
23950 2.66848E+013 
24000 2.65531E+013 
24050 2.64219E+013 
24100 2.62913E+013 
24150 2.61613E+013 
24200 2.60317E+013 
24250 2.59028E+013 
24300 2.57744E+013 
24350 2.56465E+013 
24400 2.55191E+013 
24450 2.53923E+013 
24500 2.52661E+013 
24550 2.51404E+013 
24600 2.50152E+013 
24650 2.48906E+013 
24700 2.47665E+013 
24750 2.46429E+013 
24800 2.45199E+013 
24850 2.43973E+013 
24900 2.42754E+013 
24950 2.41539E+013 
25000 2.4033E+013 
25050 2.39126E+013 
25100 2.37927E+013 
25150 2.36734E+013 
25200 2.35545E+013 
25250 2.34362E+013 
25300 2.33184E+013 
25350 2.32011E+013 
25400 2.30843E+013 
25450 2.29681E+013 
25500 2.28523E+013 
25550 2.27371E+013 
25600 2.26223E+013 
25650 2.25081E+013 
25700 2.23944E+013 
25750 2.22812E+013 
25800 2.21685E+013 
25850 2.20563E+013 
25900 2.19445E+013 
25950 2.18333E+013 
26000 2.17226E+013 
26050 2.16124E+013 
26100 2.15026E+013 
26150 2.13934E+013 
26200 2.12846E+013 
26250 2.11763E+013 
26300 2.10685E+013 
26350 2.09612E+013 
26400 2.08544E+013 
26450 2.07481E+013 
26500 2.06422E+013 
26550 2.05368E+013 
26600 2.04319E+013 
26650 2.03275E+013 
26700 2.02235E+013 
26750 2.01201E+013 
26800 2.0017E+013 
26850 1.99145E+013 
26900 1.98124E+013 
26950 1.97108E+013 
27000 1.96097E+013 
27050 1.9509E+013 
27100 1.94088E+013 
27150 1.9309E+013 
27200 1.92097E+013 
27250 1.91108E+013 
27300 1.90124E+013 
27350 1.89145E+013 
27400 1.8817E+013 
27450 1.872E+013 
27500 1.86234E+013 
27550 1.85272E+013 
27600 1.84315E+013 
27650 1.83362E+013 
27700 1.82414E+013 
27750 1.8147E+013 
27800 1.80531E+013 
27850 1.79596E+013 
27900 1.78665E+013 
27950 1.77739E+013 
28000 1.76817E+013 
28050 1.75899E+013 
28100 1.74986E+013 
28150 1.74077E+013 
28200 1.73172E+013 
28250 1.72271E+013 
28300 1.71375E+013 
28350 1.70483E+013 
28400 1.69595E+013 
28450 1.68711E+013 
28500 1.67831E+013 
28550 1.66956E+013 
28600 1.66084E+013 
28650 1.65217E+013 
28700 1.64354E+013 
28750 1.63495E+013 
28800 1.6264E+013 
28850 1.61789E+013 
28900 1.60942E+013 
28950 1.60099E+013 
29000 1.59261E+013 
29050 1.58426E+013 
29100 1.57595E+013 
29150 1.56768E+013 
29200 1.55945E+013 
29250 1.55126E+013 
29300 1.54311E+013 
29350 1.535E+013 
29400 1.52692E+013 
29450 1.51889E+013 
29500 1.51089E+013 
29550 1.50294E+013 
29600 1.49502E+013 
29650 1.48714E+013 
29700 1.47929E+013 
29750 1.47149E+013 
29800 1.46372E+013 
29850 1.45599E+013 
29900 1.4483E+013 
29950 1.44064E+013 
30000 1.43303E+013 
30050 1.42545E+013 
30100 1.4179E+013 
30150 1.41039E+013 
30200 1.40292E+013 
30250 1.39549E+013 
30300 1.38809E+013 
30350 1.38073E+013 
30400 1.3734E+013 
30450 1.36611E+013 
30500 1.35885E+013 
30550 1.35163E+013 
30600 1.34445E+013 
30650 1.3373E+013 
30700 1.33018E+013 
30750 1.32311E+013 
30800 1.31606E+013 
30850 1.30905E+013 
30900 1.30207E+013 
30950 1.29513E+013 
31000 1.28823E+013 
31050 1.28135E+013 
31100 1.27451E+013 
31150 1.26771E+013 
31200 1.26093E+013 
31250 1.2542E+013 
31300 1.24749E+013 
31350 1.24082E+013 
31400 1.23418E+013 
31450 1.22757E+013 
31500 1.221E+013 
31550 1.21446E+013 
31600 1.20795E+013 
31650 1.20147E+013 
31700 1.19503E+013 
31750 1.18862E+013 
31800 1.18224E+013 
31850 1.17589E+013 
31900 1.16957E+013 
31950 1.16329E+013 
32000 1.15704E+013 
32050 1.15081E+013 
32100 1.14462E+013 
32150 1.13846E+013 
32200 1.13233E+013 
32250 1.12623E+013 
32300 1.12017E+013 
32350 1.11413E+013 
32400 1.10812E+013 
32450 1.10214E+013 
32500 1.0962E+013 
32550 1.09028E+013 
32600 1.08439E+013 
32650 1.07853E+013 
32700 1.07271E+013 
32750 1.06691E+013 
32800 1.06114E+013 
32850 1.0554E+013 
32900 1.04968E+013 
32950 1.044E+013 
33000 1.03835E+013 
33050 1.03272E+013 
33100 1.02713E+013 
33150 1.02156E+013 
33200 1.01602E+013 
33250 1.01051E+013 
33300 1.00502E+013 
33350 9.99565E+012 
33400 9.94137E+012 
33450 9.88736E+012 
33500 9.83363E+012 
33550 9.78016E+012 
33600 9.72698E+012 
33650 9.67406E+012 
33700 9.62141E+012 
33750 9.56904E+012 
33800 9.51693E+012 
33850 9.46508E+012 
33900 9.4135E+012 
33950 9.36219E+012 
34000 9.31113E+012 
34050 9.26034E+012 
34100 9.20981E+012 
34150 9.15954E+012 
34200 9.10953E+012 
34250 9.05977E+012 
34300 9.01027E+012 
34350 8.96102E+012 
34400 8.91203E+012 
34450 8.86329E+012 
34500 8.8148E+012 
34550 8.76656E+012 
34600 8.71856E+012 
34650 8.67082E+012 
34700 8.62332E+012 
34750 8.57607E+012 
34800 8.52906E+012 
34850 8.48229E+012 
34900 8.43577E+012 
34950 8.38948E+012 
35000 8.34344E+012 
35050 8.29763E+012 
35100 8.25206E+012 
35150 8.20673E+012 
35200 8.16163E+012 
35250 8.11677E+012 
35300 8.07214E+012 
35350 8.02774E+012 
35400 7.98358E+012 
35450 7.93964E+012 
35500 7.89593E+012 
35550 7.85245E+012 
35600 7.80919E+012 
35650 7.76616E+012 
35700 7.72336E+012 
35750 7.68077E+012 
35800 7.63841E+012 
35850 7.59627E+012 
35900 7.55436E+012 
35950 7.51265E+012 
36000 7.47117E+012 
36050 7.42991E+012 
36100 7.38886E+012 
36150 7.34803E+012 
36200 7.30741E+012 
36250 7.267E+012 
36300 7.2268E+012 
36350 7.18682E+012 
36400 7.14705E+012 
36450 7.10748E+012 
36500 7.06812E+012 
36550 7.02897E+012 
36600 6.99003E+012 
36650 6.95129E+012 
36700 6.91275E+012 
36750 6.87442E+012 
36800 6.83629E+012 
36850 6.79835E+012 
36900 6.76062E+012 
36950 6.72309E+012 
37000 6.68576E+012 
37050 6.64862E+012 
37100 6.61168E+012 
37150 6.57494E+012 
37200 6.53839E+012 
37250 6.50203E+012 
37300 6.46587E+012 
37350 6.42989E+012 
37400 6.39411E+012 
37450 6.35852E+012 
37500 6.32311E+012 
37550 6.2879E+012 
37600 6.25287E+012 
37650 6.21802E+012 
37700 6.18336E+012 
37750 6.14889E+012 
37800 6.1146E+012 
37850 6.08049E+012 
37900 6.04656E+012 
37950 6.01281E+012 
38000 5.97924E+012 
38050 5.94585E+012 
38100 5.91264E+012 
38150 5.87961E+012 
38200 5.84675E+012 
38250 5.81407E+012 
38300 5.78156E+012 
38350 5.74923E+012 
38400 5.71706E+012 
38450 5.68507E+012 
38500 5.65326E+012 
38550 5.62161E+012 
38600 5.59013E+012 
38650 5.55882E+012 
38700 5.52767E+012 
38750 5.4967E+012 
38800 5.46588E+012 
38850 5.43524E+012 
38900 5.40476E+012 
38950 5.37444E+012 
39000 5.34429E+012 
39050 5.31429E+012 
39100 5.28446E+012 
39150 5.25479E+012 
39200 5.22528E+012 
39250 5.19592E+012 
39300 5.16673E+012 
39350 5.13769E+012 
39400 5.10881E+012 
39450 5.08008E+012 
39500 5.05151E+012 
39550 5.02309E+012 
39600 4.99483E+012 
39650 4.96671E+012 
39700 4.93875E+012 
39750 4.91094E+012 
39800 4.88328E+012 
39850 4.85577E+012 
39900 4.82841E+012 
39950 4.8012E+012 
40000 4.77413E+012 
40050 4.74721E+012 
40100 4.72044E+012 
40150 4.69381E+012 
40200 4.66732E+012 
40250 4.64098E+012 
40300 4.61478E+012 
40350 4.58872E+012 
40400 4.56281E+012 
40450 4.53703E+012 
40500 4.51139E+012 
40550 4.4859E+012 
40600 4.46054E+012 
40650 4.43532E+012 
40700 4.41024E+012 
40750 4.38529E+012 
40800 4.36048E+012 
40850 4.3358E+012 
40900 4.31126E+012 
40950 4.28685E+012 
41000 4.26258E+012 
41050 4.23843E+012 
41100 4.21442E+012 
41150 4.19054E+012 
41200 4.16679E+012 
41250 4.14317E+012 
41300 4.11968E+012 
41350 4.09631E+012 
41400 4.07308E+012 
41450 4.04997E+012 
41500 4.02698E+012 
41550 4.00413E+012 
41600 3.98139E+012 
41650 3.95878E+012 
41700 3.9363E+012 
41750 3.91394E+012 
41800 3.8917E+012 
41850 3.86958E+012 
41900 3.84759E+012 
41950 3.82571E+012 
42000 3.80395E+012 
42050 3.78232E+012 
42100 3.7608E+012 
42150 3.7394E+012 
42200 3.71811E+012 
42250 3.69695E+012 
42300 3.6759E+012 
42350 3.65497E+012 
42400 3.63415E+012 
42450 3.61344E+012 
42500 3.59285E+012 
42550 3.57237E+012 
42600 3.55201E+012 
42650 3.53176E+012 
42700 3.51161E+012 
42750 3.49158E+012 
42800 3.47166E+012 
42850 3.45185E+012 
42900 3.43215E+012 
42950 3.41256E+012 
43000 3.39308E+012 
43050 3.3737E+012 
43100 3.35443E+012 
43150 3.33526E+012 
43200 3.31621E+012 
43250 3.29725E+012 
43300 3.27841E+012 
43350 3.25966E+012 
43400 3.24102E+012 
43450 3.22248E+012 
43500 3.20405E+012 
43550 3.18571E+012 
43600 3.16748E+012 
43650 3.14935E+012 
43700 3.13132E+012 
43750 3.11339E+012 
43800 3.09556E+012 
43850 3.07783E+012 
43900 3.0602E+012 
43950 3.04266E+012 
44000 3.02522E+012 
44050 3.00788E+012 
44100 2.99063E+012 
44150 2.97348E+012 
44200 2.95643E+012 
44250 2.93947E+012 
44300 2.9226E+012 
44350 2.90583E+012 
44400 2.88915E+012 
44450 2.87256E+012 
44500 2.85607E+012 
44550 2.83967E+012 
44600 2.82336E+012 
44650 2.80714E+012 
44700 2.79101E+012 
44750 2.77497E+012 
44800 2.75902E+012 
44850 2.74315E+012 
44900 2.72738E+012 
44950 2.71169E+012 
45000 2.6961E+012 
45050 2.68058E+012 
45100 2.66516E+012 
45150 2.64982E+012 
45200 2.63457E+012 
45250 2.6194E+012 
45300 2.60432E+012 
45350 2.58932E+012 
45400 2.5744E+012 
45450 2.55957E+012 
45500 2.54482E+012 
45550 2.53016E+012 
45600 2.51557E+012 
45650 2.50107E+012 
45700 2.48665E+012 
45750 2.47231E+012 
45800 2.45805E+012 
45850 2.44387E+012 
45900 2.42977E+012 
45950 2.41574E+012 
46000 2.4018E+012 
46050 2.38793E+012 
46100 2.37415E+012 
46150 2.36044E+012 
46200 2.3468E+012 
46250 2.33324E+012 
46300 2.31976E+012 
46350 2.30636E+012 
46400 2.29303E+012 
46450 2.27977E+012 
46500 2.26659E+012 
46550 2.25349E+012 
46600 2.24045E+012 
46650 2.22749E+012 
46700 2.21461E+012 
46750 2.20179E+012 
46800 2.18905E+012 
46850 2.17638E+012 
46900 2.16378E+012 
46950 2.15125E+012 
47000 2.1388E+012 
47050 2.12641E+012 
47100 2.11409E+012 
47150 2.10184E+012 
47200 2.08966E+012 
47250 2.07755E+012 
47300 2.06551E+012 
47350 2.05354E+012 
47400 2.04163E+012 
47450 2.02979E+012 
47500 2.01802E+012 
47550 2.00631E+012 
47600 1.99467E+012 
47650 1.98309E+012 
47700 1.97159E+012 
47750 1.96014E+012 
47800 1.94876E+012 
47850 1.93745E+012 
47900 1.9262E+012 
47950 1.91501E+012 
48000 1.90389E+012 
48050 1.89282E+012 
48100 1.88182E+012 
48150 1.87089E+012 
48200 1.86001E+012 
48250 1.8492E+012 
48300 1.83845E+012 
48350 1.82776E+012 
48400 1.81713E+012 
48450 1.80656E+012 
48500 1.79605E+012 
48550 1.7856E+012 
48600 1.77521E+012 
48650 1.76488E+012 
48700 1.7546E+012 
48750 1.74439E+012 
48800 1.73423E+012 
48850 1.72413E+012 
48900 1.71409E+012 
48950 1.7041E+012 
49000 1.69417E+012 
49050 1.6843E+012 
49100 1.67449E+012 
49150 1.66473E+012 
49200 1.65502E+012 
49250 1.64537E+012 
49300 1.63578E+012 
49350 1.62624E+012 
49400 1.61675E+012 
49450 1.60732E+012 
49500 1.59794E+012 
49550 1.58862E+012 
49600 1.57935E+012 
49650 1.57013E+012 
49700 1.56096E+012 
49750 1.55185E+012 
49800 1.54279E+012 
49850 1.53378E+012 
49900 1.52482E+012 
49950 1.51591E+012 
50000 1.50705E+012 
50050 1.49824E+012 
50100 1.48949E+012 
50150 1.48078E+012 
50200 1.47213E+012 
50250 1.46352E+012 
50300 1.45496E+012 
50350 1.44645E+012 
50400 1.43799E+012 
50450 1.42958E+012 
50500 1.42122E+012 
50550 1.4129E+012 
50600 1.40463E+012 
50650 1.39641E+012 
50700 1.38824E+012 
50750 1.38011E+012 
50800 1.37203E+012 
50850 1.36399E+012 
50900 1.356E+012 
50950 1.34806E+012 
51000 1.34016E+012 
51050 1.33231E+012 
51100 1.3245E+012 
51150 1.31674E+012 
51200 1.30902E+012 
51250 1.30135E+012 
51300 1.29372E+012 
51350 1.28613E+012 
51400 1.27859E+012 
51450 1.27109E+012 
51500 1.26363E+012 
51550 1.25622E+012 
51600 1.24885E+012 
51650 1.24152E+012 
51700 1.23423E+012 
51750 1.22699E+012 
51800 1.21978E+012 
51850 1.21262E+012 
51900 1.2055E+012 
51950 1.19842E+012 
52000 1.19138E+012 
52050 1.18438E+012 
52100 1.17742E+012 
52150 1.17051E+012 
52200 1.16363E+012 
52250 1.15679E+012 
52300 1.14999E+012 
52350 1.14323E+012 
52400 1.13651E+012 
52450 1.12982E+012 
52500 1.12318E+012 
52550 1.11657E+012 
52600 1.11E+012 
52650 1.10347E+012 
52700 1.09698E+012 
52750 1.09053E+012 
52800 1.08411E+012 
52850 1.07773E+012 
52900 1.07138E+012 
52950 1.06507E+012 
53000 1.0588E+012 
53050 1.05257E+012 
53100 1.04637E+012 
53150 1.04021E+012 
53200 1.03408E+012 
53250 1.02798E+012 
53300 1.02193E+012 
53350 1.0159E+012 
53400 1.00992E+012 
53450 1.00396E+012 
53500 9.98045E+011 
53550 9.92161E+011 
53600 9.8631E+011 
53650 9.80494E+011 
53700 9.74711E+011 
53750 9.68961E+011 
53800 9.63245E+011 
53850 9.57561E+011 
53900 9.51911E+011 
53950 9.46293E+011 
54000 9.40708E+011 
54050 9.35155E+011 
54100 9.29635E+011 
54150 9.24146E+011 
54200 9.18689E+011 
54250 9.13263E+011 
54300 9.07869E+011 
54350 9.02507E+011 
54400 8.97175E+011 
54450 8.91874E+011 
54500 8.86604E+011 
54550 8.81365E+011 
54600 8.76156E+011 
54650 8.70977E+011 
54700 8.65828E+011 
54750 8.60709E+011 
54800 8.55619E+011 
54850 8.5056E+011 
54900 8.45529E+011 
54950 8.40528E+011 
55000 8.35556E+011 
55050 8.30612E+011 
55100 8.25698E+011 
55150 8.20812E+011 
55200 8.15954E+011 
55250 8.11124E+011 
55300 8.06323E+011 
55350 8.01549E+011 
55400 7.96804E+011 
55450 7.92085E+011 
55500 7.87395E+011 
55550 7.82731E+011 
55600 7.78095E+011 
55650 7.73485E+011 
55700 7.68902E+011 
55750 7.64346E+011 
55800 7.59817E+011 
55850 7.55314E+011 
55900 7.50837E+011 
55950 7.46386E+011 
56000 7.41961E+011 
56050 7.37562E+011 
56100 7.33189E+011 
56150 7.2884E+011 
56200 7.24518E+011 
56250 7.2022E+011 
56300 7.15948E+011 
56350 7.117E+011 
56400 7.07477E+011 
56450 7.03279E+011 
56500 6.99105E+011 
56550 6.94956E+011 
56600 6.90831E+011 
56650 6.8673E+011 
56700 6.82652E+011 
56750 6.78599E+011 
56800 6.74569E+011 
56850 6.70563E+011 
56900 6.6658E+011 
56950 6.6262E+011 
57000 6.58684E+011 
57050 6.5477E+011 
57100 6.5088E+011 
57150 6.47012E+011 
57200 6.43166E+011 
57250 6.39343E+011 
57300 6.35543E+011 
57350 6.31764E+011 
57400 6.28008E+011 
57450 6.24274E+011 
57500 6.20561E+011 
57550 6.16871E+011 
57600 6.13202E+011 
57650 6.09554E+011 
57700 6.05928E+011 
57750 6.02322E+011 
57800 5.98738E+011 
57850 5.95175E+011 
57900 5.91633E+011 
57950 5.88111E+011 
58000 5.84611E+011 
58050 5.8113E+011 
58100 5.7767E+011 
58150 5.7423E+011 
58200 5.70811E+011 
58250 5.67411E+011 
58300 5.64032E+011 
58350 5.60672E+011 
58400 5.57332E+011 
58450 5.54011E+011 
58500 5.5071E+011 
58550 5.47428E+011 
58600 5.44166E+011 
58650 5.40923E+011 
58700 5.37698E+011 
58750 5.34493E+011 
58800 5.31306E+011 
58850 5.28138E+011 
58900 5.24989E+011 
58950 5.21858E+011 
59000 5.18746E+011 
59050 5.15652E+011 
59100 5.12576E+011 
59150 5.09517E+011 
59200 5.06478E+011 
59250 5.03455E+011 
59300 5.00451E+011 
59350 4.97464E+011 
59400 4.94495E+011 
59450 4.91543E+011 
59500 4.88609E+011 
59550 4.85692E+011 
59600 4.82792E+011 
59650 4.79909E+011 
59700 4.77043E+011 
59750 4.74194E+011 
59800 4.71361E+011 
59850 4.68546E+011 
59900 4.65746E+011 
59950 4.62964E+011 
60000 4.60197E+011 
60050 4.57447E+011 
60100 4.54714E+011 
60150 4.51996E+011 
60200 4.49294E+011 
60250 4.46608E+011 
60300 4.43938E+011 
60350 4.41284E+011 
60400 4.38645E+011 
60450 4.36022E+011 
60500 4.33414E+011 
60550 4.30822E+011 
60600 4.28245E+011 
60650 4.25683E+011 
60700 4.23136E+011 
60750 4.20605E+011 
60800 4.18088E+011 
60850 4.15586E+011 
60900 4.13099E+011 
60950 4.10626E+011 
61000 4.08168E+011 
61050 4.05725E+011 
61100 4.03296E+011 
61150 4.00881E+011 
61200 3.98481E+011 
61250 3.96095E+011 
61300 3.93722E+011 
61350 3.91364E+011 
61400 3.8902E+011 
61450 3.86689E+011 
61500 3.84373E+011 
61550 3.8207E+011 
61600 3.7978E+011 
61650 3.77504E+011 
61700 3.75242E+011 
61750 3.72993E+011 
61800 3.70757E+011 
61850 3.68535E+011 
61900 3.66325E+011 
61950 3.64129E+011 
62000 3.61946E+011 
62050 3.59775E+011 
62100 3.57618E+011 
62150 3.55473E+011 
62200 3.53341E+011 
62250 3.51221E+011 
62300 3.49114E+011 
62350 3.4702E+011 
62400 3.44937E+011 
62450 3.42868E+011 
62500 3.4081E+011 
62550 3.38765E+011 
62600 3.36731E+011 
62650 3.3471E+011 
62700 3.32701E+011 
62750 3.30703E+011 
62800 3.28718E+011 
62850 3.26744E+011 
62900 3.24782E+011 
62950 3.22832E+011 
63000 3.20893E+011 
63050 3.18965E+011 
63100 3.17049E+011 
63150 3.15145E+011 
63200 3.13251E+011 
63250 3.11369E+011 
63300 3.09498E+011 
63350 3.07638E+011 
63400 3.05789E+011 
63450 3.03951E+011 
63500 3.02124E+011 
63550 3.00308E+011 
63600 2.98503E+011 
63650 2.96708E+011 
63700 2.94924E+011 
63750 2.93151E+011 
63800 2.91388E+011 
63850 2.89636E+011 
63900 2.87893E+011 
63950 2.86162E+011 
64000 2.8444E+011 
64050 2.82729E+011 
64100 2.81028E+011 
64150 2.79337E+011 
64200 2.77656E+011 
64250 2.75985E+011 
64300 2.74325E+011 
64350 2.72673E+011 
64400 2.71032E+011 
64450 2.69401E+011 
64500 2.67779E+011 
64550 2.66167E+011 
64600 2.64564E+011 
64650 2.62971E+011 
64700 2.61387E+011 
64750 2.59813E+011 
64800 2.58248E+011 
64850 2.56693E+011 
64900 2.55146E+011 
64950 2.53609E+011 
65000 2.52082E+011 
65050 2.50563E+011 
65100 2.49053E+011 
65150 2.47552E+011 
65200 2.4606E+011 
65250 2.44577E+011 
65300 2.43103E+011 
65350 2.41638E+011 
65400 2.40181E+011 
65450 2.38733E+011 
65500 2.37294E+011 
65550 2.35863E+011 
65600 2.34441E+011 
65650 2.33027E+011 
65700 2.31621E+011 
65750 2.30224E+011 
65800 2.28836E+011 
65850 2.27455E+011 
65900 2.26083E+011 
65950 2.24719E+011 
66000 2.23363E+011 
66050 2.22016E+011 
66100 2.20676E+011 
66150 2.19344E+011 
66200 2.1802E+011 
66250 2.16704E+011 
66300 2.15396E+011 
66350 2.14096E+011 
66400 2.12804E+011 
66450 2.11519E+011 
66500 2.10242E+011 
66550 2.08972E+011 
66600 2.0771E+011 
66650 2.06456E+011 
66700 2.05209E+011 
66750 2.03969E+011 
66800 2.02737E+011 
66850 2.01513E+011 
66900 2.00295E+011 
66950 1.99085E+011 
67000 1.97882E+011 
67050 1.96686E+011 
67100 1.95498E+011 
67150 1.94316E+011 
67200 1.93142E+011 
67250 1.91975E+011 
67300 1.90814E+011 
67350 1.89661E+011 
67400 1.88514E+011 
67450 1.87374E+011 
67500 1.86241E+011 
67550 1.85115E+011 
67600 1.83996E+011 
67650 1.82883E+011 
67700 1.81777E+011 
67750 1.80678E+011 
67800 1.79585E+011 
67850 1.78498E+011 
67900 1.77419E+011 
67950 1.76345E+011 
68000 1.75278E+011 
68050 1.74217E+011 
68100 1.73163E+011 
68150 1.72115E+011 
68200 1.71074E+011 
68250 1.70038E+011 
68300 1.69009E+011 
68350 1.67986E+011 
68400 1.66969E+011 
68450 1.65958E+011 
68500 1.64953E+011 
68550 1.63955E+011 
68600 1.62962E+011 
68650 1.61975E+011 
68700 1.60994E+011 
68750 1.60019E+011 
68800 1.5905E+011 
68850 1.58086E+011 
68900 1.57129E+011 
68950 1.56177E+011 
69000 1.55231E+011 
69050 1.5429E+011 
69100 1.53355E+011 
69150 1.52426E+011 
69200 1.51502E+011 
69250 1.50584E+011 
69300 1.49671E+011 
69350 1.48764E+011 
69400 1.47863E+011 
69450 1.46966E+011 
69500 1.46075E+011 
69550 1.4519E+011 
69600 1.44309E+011 
69650 1.43434E+011 
69700 1.42565E+011 
69750 1.417E+011 
69800 1.40841E+011 
69850 1.39986E+011 
69900 1.39137E+011 
69950 1.38293E+011 
70000 1.37454E+011 
70050 1.3662E+011 
70100 1.35792E+011 
70150 1.34968E+011 
70200 1.34149E+011 
70250 1.33335E+011 
70300 1.32526E+011 
70350 1.31721E+011 
70400 1.30922E+011 
70450 1.30127E+011 
70500 1.29337E+011 
70550 1.28552E+011 
70600 1.27772E+011 
70650 1.26996E+011 
70700 1.26225E+011 
70750 1.25459E+011 
70800 1.24697E+011 
70850 1.2394E+011 
70900 1.23187E+011 
70950 1.22439E+011 
71000 1.21695E+011 
71050 1.20956E+011 
71100 1.20221E+011 
71150 1.19491E+011 
71200 1.18765E+011 
71250 1.18043E+011 
71300 1.17326E+011 
71350 1.16613E+011 
71400 1.15905E+011 
71450 1.152E+011 
71500 1.145E+011 
71550 1.13804E+011 
71600 1.13112E+011 
71650 1.12425E+011 
71700 1.11742E+011 
71750 1.11062E+011 
71800 1.10387E+011 
71850 1.09716E+011 
71900 1.09049E+011 
71950 1.08386E+011 
72000 1.07727E+011 
72050 1.07071E+011 
72100 1.0642E+011 
72150 1.05773E+011 
72200 1.0513E+011 
72250 1.0449E+011 
72300 1.03855E+011 
72350 1.03223E+011 
72400 1.02595E+011 
72450 1.01971E+011 
72500 1.0135E+011 
72550 1.00734E+011 
72600 1.00121E+011 
72650 9.95112E+010 
72700 9.89056E+010 
72750 9.83036E+010 
72800 9.77053E+010 
72850 9.71105E+010 
72900 9.65194E+010 
72950 9.59318E+010 
73000 9.53478E+010 
73050 9.47673E+010 
73100 9.41903E+010 
73150 9.36168E+010 
73200 9.30467E+010 
73250 9.24801E+010 
73300 9.19168E+010 
73350 9.1357E+010 
73400 9.08006E+010 
73450 9.02475E+010 
73500 8.96978E+010 
73550 8.91514E+010 
73600 8.86083E+010 
73650 8.80684E+010 
73700 8.75318E+010 
73750 8.69985E+010 
73800 8.64684E+010 
73850 8.59414E+010 
73900 8.54177E+010 
73950 8.48971E+010 
74000 8.43797E+010 
74050 8.38654E+010 
74100 8.33542E+010 
74150 8.28461E+010 
74200 8.2341E+010 
74250 8.1839E+010 
74300 8.13401E+010 
74350 8.08441E+010 
74400 8.03512E+010 
74450 7.98612E+010 
74500 7.93742E+010 
74550 7.88902E+010 
74600 7.8409E+010 
74650 7.79308E+010 
74700 7.74555E+010 
74750 7.6983E+010 
74800 7.65134E+010 
74850 7.60466E+010 
74900 7.55827E+010 
74950 7.51215E+010 
75000 7.46632E+010 
75050 7.42076E+010 
75100 7.37548E+010 
75150 7.33047E+010 
75200 7.28574E+010 
75250 7.24127E+010 
75300 7.19708E+010 
75350 7.15315E+010 
75400 7.10949E+010 
75450 7.06609E+010 
75500 7.02295E+010 
75550 6.98008E+010 
75600 6.93746E+010 
75650 6.8951E+010 
75700 6.853E+010 
75750 6.81116E+010 
75800 6.76956E+010 
75850 6.72822E+010 
75900 6.68713E+010 
75950 6.64629E+010 
76000 6.6057E+010 
76050 6.56535E+010 
76100 6.52524E+010 
76150 6.48538E+010 
76200 6.44576E+010 
76250 6.40638E+010 
76300 6.36724E+010 
76350 6.32834E+010 
76400 6.28967E+010 
76450 6.25124E+010 
76500 6.21304E+010 
76550 6.17507E+010 
76600 6.13733E+010 
76650 6.09982E+010 
76700 6.06254E+010 
76750 6.02548E+010 
76800 5.98864E+010 
76850 5.95204E+010 
76900 5.91565E+010 
76950 5.87948E+010 
77000 5.84354E+010 
77050 5.80781E+010 
77100 5.77229E+010 
77150 5.737E+010 
77200 5.70191E+010 
77250 5.66704E+010 
77300 5.63239E+010 
77350 5.59794E+010 
77400 5.5637E+010 
77450 5.52967E+010 
77500 5.49584E+010 
77550 5.46222E+010 
77600 5.4288E+010 
77650 5.39559E+010 
77700 5.36258E+010 
77750 5.32977E+010 
77800 5.29716E+010 
77850 5.26474E+010 
77900 5.23253E+010 
77950 5.2005E+010 
78000 5.16868E+010 
78050 5.13704E+010 
78100 5.1056E+010 
78150 5.07435E+010 
78200 5.04329E+010 
78250 5.01242E+010 
78300 4.98173E+010 
78350 4.95123E+010 
78400 4.92092E+010 
78450 4.89079E+010 
78500 4.86084E+010 
78550 4.83108E+010 
78600 4.8015E+010 
78650 4.7721E+010 
78700 4.74287E+010 
78750 4.71382E+010 
78800 4.68495E+010 
78850 4.65626E+010 
78900 4.62774E+010 
78950 4.59939E+010 
79000 4.57121E+010 
79050 4.54321E+010 
79100 4.51538E+010 
79150 4.48771E+010 
79200 4.46022E+010 
79250 4.43289E+010 
79300 4.40572E+010 
79350 4.37873E+010 
79400 4.35189E+010 
79450 4.32522E+010 
79500 4.29871E+010 
79550 4.27237E+010 
79600 4.24618E+010 
79650 4.22015E+010 
79700 4.19429E+010 
79750 4.16857E+010 
79800 4.14302E+010 
79850 4.11762E+010 
79900 4.09238E+010 
79950 4.06728E+010 
80000 4.04234E+010 
80050 4.01756E+010 
80100 3.99292E+010 
80150 3.96844E+010 
80200 3.9441E+010 
80250 3.91991E+010 
80300 3.89587E+010 
80350 3.87197E+010 
80400 3.84823E+010 
80450 3.82462E+010 
80500 3.80116E+010 
80550 3.77784E+010 
80600 3.75466E+010 
80650 3.73163E+010 
80700 3.70873E+010 
80750 3.68598E+010 
80800 3.66336E+010 
80850 3.64088E+010 
80900 3.61854E+010 
80950 3.59633E+010 
81000 3.57426E+010 
81050 3.55233E+010 
81100 3.53053E+010 
81150 3.50886E+010 
81200 3.48732E+010 
81250 3.46591E+010 
81300 3.44463E+010 
81350 3.42349E+010 
81400 3.40247E+010 
81450 3.38158E+010 
81500 3.36082E+010 
81550 3.34019E+010 
81600 3.31968E+010 
81650 3.29929E+010 
81700 3.27903E+010 
81750 3.25889E+010 
81800 3.23888E+010 
81850 3.21899E+010 
81900 3.19922E+010 
81950 3.17957E+010 
82000 3.16004E+010 
82050 3.14063E+010 
82100 3.12134E+010 
82150 3.10216E+010 
82200 3.0831E+010 
82250 3.06416E+010 
82300 3.04534E+010 
82350 3.02663E+010 
82400 3.00803E+010 
82450 2.98955E+010 
82500 2.97117E+010 
82550 2.95292E+010 
82600 2.93477E+010 
82650 2.91673E+010 
82700 2.89881E+010 
82750 2.88099E+010 
82800 2.86328E+010 
82850 2.84568E+010 
82900 2.82819E+010 
82950 2.81081E+010 
83000 2.79353E+010 
83050 2.77635E+010 
83100 2.75928E+010 
83150 2.74232E+010 
83200 2.72546E+010 
83250 2.7087E+010 
83300 2.69204E+010 
83350 2.67549E+010 
83400 2.65903E+010 
83450 2.64268E+010 
83500 2.62643E+010 
83550 2.61028E+010 
83600 2.59422E+010 
83650 2.57827E+010 
83700 2.56241E+010 
83750 2.54664E+010 
83800 2.53098E+010 
83850 2.51541E+010 
83900 2.49993E+010 
83950 2.48455E+010 
84000 2.46927E+010 
84050 2.45407E+010 
84100 2.43897E+010 
84150 2.42397E+010 
84200 2.40905E+010 
84250 2.39423E+010 
84300 2.37949E+010 
84350 2.36485E+010 
84400 2.35029E+010 
84450 2.33583E+010 
84500 2.32145E+010 
84550 2.30716E+010 
84600 2.29296E+010 
84650 2.27885E+010 
84700 2.26482E+010 
84750 2.25087E+010 
84800 2.23702E+010 
84850 2.22324E+010 
84900 2.20956E+010 
84950 2.19595E+010 
85000 2.18243E+010 
85050 2.16899E+010 
85100 2.15564E+010 
85150 2.14236E+010 
85200 2.12917E+010 
85250 2.11605E+010 
85300 2.10302E+010 
85350 2.09007E+010 
85400 2.0772E+010 
85450 2.0644E+010 
85500 2.05168E+010 
85550 2.03905E+010 
85600 2.02648E+010 
85650 2.014E+010 
85700 2.00159E+010 
85750 1.98926E+010 
85800 1.97701E+010 
85850 1.96482E+010 
85900 1.95272E+010 
85950 1.94068E+010 
86000 1.92873E+010 
86050 1.91684E+010 
86100 1.90503E+010 
86150 1.89329E+010 
86200 1.88162E+010 
86250 1.87002E+010 
86300 1.8585E+010 
86350 1.84704E+010 
86400 1.83565E+010 
86450 1.82434E+010 
86500 1.81309E+010 
86550 1.80191E+010 
86600 1.79081E+010 
86650 1.77977E+010 
86700 1.76879E+010 
86750 1.75789E+010 
86800 1.74705E+010 
86850 1.73628E+010 
86900 1.72557E+010 
86950 1.71493E+010 
87000 1.70435E+010 
87050 1.69384E+010 
87100 1.6834E+010 
87150 1.67301E+010 
87200 1.6627E+010 
87250 1.65244E+010 
87300 1.64225E+010 
87350 1.63212E+010 
87400 1.62205E+010 
87450 1.61204E+010 
87500 1.6021E+010 
87550 1.59221E+010 
87600 1.58239E+010 
87650 1.57263E+010 
87700 1.56292E+010 
87750 1.55328E+010 
87800 1.5437E+010 
87850 1.53417E+010 
87900 1.5247E+010 
87950 1.5153E+010 
88000 1.50594E+010 
88050 1.49665E+010 
88100 1.48741E+010 
88150 1.47823E+010 
88200 1.46911E+010 
88250 1.46004E+010 
88300 1.45103E+010 
88350 1.44207E+010 
88400 1.43317E+010 
88450 1.42432E+010 
88500 1.41553E+010 
88550 1.40679E+010 
88600 1.3981E+010 
88650 1.38947E+010 
88700 1.38089E+010 
88750 1.37237E+010 
88800 1.36389E+010 
88850 1.35547E+010 
88900 1.3471E+010 
88950 1.33878E+010 
89000 1.33052E+010 
89050 1.3223E+010 
89100 1.31413E+010 
89150 1.30601E+010 
89200 1.29795E+010 
89250 1.28993E+010 
89300 1.28196E+010 
89350 1.27404E+010 
89400 1.26617E+010 
89450 1.25835E+010 
89500 1.25058E+010 
89550 1.24285E+010 
89600 1.23517E+010 
89650 1.22754E+010 
89700 1.21996E+010 
89750 1.21242E+010 
89800 1.20493E+010 
89850 1.19748E+010 
89900 1.19008E+010 
89950 1.18273E+010 
90000 1.17542E+010 
90050 1.16816E+010 
90100 1.16094E+010 
90150 1.15376E+010 
90200 1.14663E+010 
90250 1.13954E+010 
90300 1.1325E+010 
90350 1.1255E+010 
90400 1.11854E+010 
90450 1.11163E+010 
90500 1.10475E+010 
90550 1.09792E+010 
90600 1.09114E+010 
90650 1.08439E+010 
90700 1.07769E+010 
90750 1.07102E+010 
90800 1.0644E+010 
90850 1.05782E+010 
90900 1.05128E+010 
90950 1.04478E+010 
91000 1.03832E+010 
91050 1.03189E+010 
91100 1.02551E+010 
91150 1.01917E+010 
91200 1.01287E+010 
91250 1.0066E+010 
91300 1.00037E+010 
91350 9.94188E+009 
91400 9.88038E+009 
91450 9.81926E+009 
91500 9.75852E+009 
91550 9.69815E+009 
91600 9.63815E+009 
91650 9.57852E+009 
91700 9.51926E+009 
91750 9.46037E+009 
91800 9.40183E+009 
91850 9.34366E+009 
91900 9.28584E+009 
91950 9.22838E+009 
92000 9.17128E+009 
92050 9.11452E+009 
92100 9.05812E+009 
92150 9.00206E+009 
92200 8.94635E+009 
92250 8.89098E+009 
92300 8.83595E+009 
92350 8.78126E+009 
92400 8.72691E+009 
92450 8.67289E+009 
92500 8.6192E+009 
92550 8.56585E+009 
92600 8.51282E+009 
92650 8.46012E+009 
92700 8.40775E+009 
92750 8.3557E+009 
92800 8.30396E+009 
92850 8.25255E+009 
92900 8.20145E+009 
92950 8.15067E+009 
93000 8.1002E+009 
93050 8.05004E+009 
93100 8.0002E+009 
93150 7.95065E+009 
93200 7.90142E+009 
93250 7.85249E+009 
93300 7.80385E+009 
93350 7.75552E+009 
93400 7.70749E+009 
93450 7.65975E+009 
93500 7.61231E+009 
93550 7.56515E+009 
93600 7.51829E+009 
93650 7.47172E+009 
93700 7.42544E+009 
93750 7.37944E+009 
93800 7.33372E+009 
93850 7.28829E+009 
93900 7.24313E+009 
93950 7.19826E+009 
94000 7.15366E+009 
94050 7.10933E+009 
94100 7.06528E+009 
94150 7.0215E+009 
94200 6.97799E+009 
94250 6.93475E+009 
94300 6.89178E+009 
94350 6.84907E+009 
94400 6.80662E+009 
94450 6.76444E+009 
94500 6.72252E+009 
94550 6.68085E+009 
94600 6.63944E+009 
94650 6.59829E+009 
94700 6.55739E+009 
94750 6.51675E+009 
94800 6.47635E+009 
94850 6.4362E+009 
94900 6.3963E+009 
94950 6.35665E+009 
95000 6.31724E+009 
95050 6.27808E+009 
95100 6.23915E+009 
95150 6.20047E+009 
95200 6.16203E+009 
95250 6.12382E+009 
95300 6.08585E+009 
95350 6.04811E+009 
95400 6.01061E+009 
95450 5.97333E+009 
95500 5.93629E+009 
95550 5.89948E+009 
95600 5.86289E+009 
95650 5.82653E+009 
95700 5.79039E+009 
95750 5.75448E+009 
95800 5.71879E+009 
95850 5.68332E+009 
95900 5.64806E+009 
95950 5.61303E+009 
96000 5.57821E+009 
96050 5.54361E+009 
96100 5.50922E+009 
96150 5.47504E+009 
96200 5.44107E+009 
96250 5.40732E+009 
96300 5.37377E+009 
96350 5.34043E+009 
96400 5.30729E+009 
96450 5.27436E+009 
96500 5.24163E+009 
96550 5.20911E+009 
96600 5.17678E+009 
96650 5.14466E+009 
96700 5.11274E+009 
96750 5.08101E+009 
96800 5.04947E+009 
96850 5.01814E+009 
96900 4.98699E+009 
96950 4.95604E+009 
97000 4.92528E+009 
97050 4.89471E+009 
97100 4.86433E+009 
97150 4.83413E+009 
97200 4.80413E+009 
97250 4.7743E+009 
97300 4.74467E+009 
97350 4.71521E+009 
97400 4.68594E+009 
97450 4.65685E+009 
97500 4.62794E+009 
97550 4.5992E+009 
97600 4.57065E+009 
97650 4.54227E+009 
97700 4.51407E+009 
97750 4.48604E+009 
97800 4.45818E+009 
97850 4.4305E+009 
97900 4.40299E+009 
97950 4.37564E+009 
98000 4.34847E+009 
98050 4.32146E+009 
98100 4.29463E+009 
98150 4.26795E+009 
98200 4.24145E+009 
98250 4.2151E+009 
98300 4.18892E+009 
98350 4.1629E+009 
98400 4.13705E+009 
98450 4.11135E+009 
98500 4.08581E+009 
98550 4.06043E+009 
98600 4.0352E+009 
98650 4.01014E+009 
98700 3.98522E+009 
98750 3.96046E+009 
98800 3.93586E+009 
98850 3.91141E+009 
98900 3.8871E+009 
98950 3.86295E+009 
99000 3.83895E+009 
99050 3.8151E+009 
99100 3.79139E+009 
99150 3.76783E+009 
99200 3.74442E+009 
99250 3.72115E+009 
99300 3.69802E+009 
99350 3.67504E+009 
99400 3.6522E+009 
99450 3.6295E+009 
99500 3.60695E+009 
99550 3.58453E+009 
99600 3.56225E+009 
99650 3.5401E+009 
99700 3.5181E+009 
99750 3.49623E+009 
99800 3.4745E+009 
99850 3.4529E+009 
99900 3.43144E+009 
99950 3.41011E+009 
100000 3.3889E+009 
