#F U:\Beamline I20\I20-1_EDE\GDA-EDE\power-calculation\Si-4p25mrad.dat
#C Si 4.25mrad
#S 1 File written by xplot on Mon Sep 09 11:44:53 2013
#N 2
#L    Photon Energy [eV]  Intens after oe #1
50 0.995761 
100 0.929274 
150 0.946825 
200 0.955371 
250 0.957932 
300 0.959994 
350 0.961564 
400 0.963635 
450 0.965277 
500 0.966863 
550 0.968197 
600 0.969483 
650 0.970772 
700 0.971828 
750 0.972514 
800 0.97319 
850 0.974071 
900 0.974881 
950 0.975863 
1000 0.976749 
1050 0.977543 
1100 0.978204 
1150 0.978591 
1200 0.978949 
1250 0.979279 
1300 0.979568 
1350 0.97983 
1400 0.980053 
1450 0.980228 
1500 0.980354 
1550 0.980453 
1600 0.980456 
1650 0.980315 
1700 0.979936 
1750 0.979075 
1800 0.976422 
1850 0.666994 
1900 0.809537 
1950 0.826114 
2000 0.835998 
2050 0.842892 
2100 0.848304 
2150 0.85271 
2200 0.85645 
2250 0.859668 
2300 0.862549 
2350 0.865105 
2400 0.867436 
2450 0.869588 
2500 0.871561 
2550 0.873384 
2600 0.875097 
2650 0.876712 
2700 0.878231 
2750 0.879663 
2800 0.88101 
2850 0.882287 
2900 0.88351 
2950 0.884673 
3000 0.885781 
3050 0.88684 
3100 0.887853 
3150 0.888823 
3200 0.889751 
3250 0.89064 
3300 0.891491 
3350 0.892309 
3400 0.893093 
3450 0.893846 
3500 0.89457 
3550 0.895264 
3600 0.895916 
3650 0.896544 
3700 0.897145 
3750 0.897724 
3800 0.898281 
3850 0.898816 
3900 0.899313 
3950 0.899785 
4000 0.900238 
4050 0.900674 
4100 0.90109 
4150 0.901464 
4200 0.901823 
4250 0.902167 
4300 0.902491 
4350 0.902776 
4400 0.903048 
4450 0.903308 
4500 0.903526 
4550 0.903728 
4600 0.903918 
4650 0.904074 
4700 0.904204 
4750 0.904324 
4800 0.904409 
4850 0.904468 
4900 0.904517 
4950 0.904522 
5000 0.90451 
5050 0.90448 
5100 0.904403 
5150 0.904317 
5200 0.904192 
5250 0.904034 
5300 0.90386 
5350 0.90363 
5400 0.903388 
5450 0.903094 
5500 0.902771 
5550 0.902409 
5600 0.901999 
5650 0.901564 
5700 0.901058 
5750 0.900528 
5800 0.899919 
5850 0.899276 
5900 0.898557 
5950 0.897787 
6000 0.89694 
6050 0.896025 
6100 0.895022 
6150 0.893934 
6200 0.892746 
6250 0.891453 
6300 0.89004 
6350 0.888499 
6400 0.886811 
6450 0.884961 
6500 0.882914 
6550 0.880667 
6600 0.878165 
6650 0.8754 
6700 0.872285 
6750 0.868813 
6800 0.864842 
6850 0.860348 
6900 0.855131 
6950 0.849079 
7000 0.84191 
7050 0.833305 
7100 0.822746 
7150 0.809421 
7200 0.792085 
7250 0.768461 
7300 0.734798 
7350 0.685221 
7400 0.617004 
7450 0.54182 
7500 0.475158 
7550 0.420792 
7600 0.376727 
7650 0.340479 
7700 0.310141 
7750 0.284344 
7800 0.262107 
7850 0.242727 
7900 0.225668 
7950 0.21053 
8000 0.197002 
8050 0.184838 
8100 0.173847 
8150 0.163863 
8200 0.154758 
8250 0.146422 
8300 0.138764 
8350 0.131709 
8400 0.125189 
8450 0.119147 
8500 0.113539 
8550 0.108318 
8600 0.103448 
8650 0.0988992 
8700 0.0946393 
8750 0.0906466 
8800 0.0868976 
8850 0.0833703 
8900 0.0800513 
8950 0.0769212 
9000 0.0739644 
9050 0.0711743 
9100 0.0685333 
9150 0.0660298 
9200 0.0636633 
9250 0.0614155 
9300 0.0592787 
9350 0.0572593 
9400 0.0553356 
9450 0.0535018 
9500 0.0517822 
9550 0.0501392 
9600 0.0485685 
9650 0.0471742 
9700 0.0458415 
9750 0.0445617 
9800 0.0431059 
9850 0.0416743 
9900 0.0403062 
9950 0.0389734 
10000 0.0376884 
10050 0.0364591 
10100 0.0353297 
10150 0.0342957 
10200 0.0333022 
10250 0.0323469 
10300 0.0314273 
10350 0.0305426 
10400 0.0296911 
10450 0.028875 
10500 0.0280892 
10550 0.0273318 
10600 0.026603 
10650 0.0259013 
10700 0.0252242 
10750 0.0245707 
10800 0.0239412 
10850 0.023333 
10900 0.0227452 
10950 0.0221779 
11000 0.0216297 
11050 0.0210994 
11100 0.0205863 
11150 0.0200905 
11200 0.0196104 
11250 0.0191454 
11300 0.0186953 
11350 0.0182594 
11400 0.0178368 
11450 0.017427 
11500 0.0170301 
11550 0.0166451 
11600 0.0162715 
11650 0.0159089 
11700 0.0155572 
11750 0.0152157 
11800 0.014884 
11850 0.0145618 
11900 0.014249 
11950 0.013945 
12000 0.0136494 
12050 0.0133621 
12100 0.0130827 
12150 0.0128109 
12200 0.0125465 
12250 0.0122894 
12300 0.0120392 
12350 0.0117956 
12400 0.0115583 
12450 0.0113275 
12500 0.0111026 
12550 0.0108836 
12600 0.0106701 
12650 0.0104622 
12700 0.0102596 
12750 0.0100621 
12800 0.00986946 
12850 0.00968168 
12900 0.00949856 
12950 0.00931993 
13000 0.00914563 
13050 0.00897559 
13100 0.00880968 
13150 0.00864773 
13200 0.00848962 
13250 0.00833527 
13300 0.0081846 
13350 0.00803744 
13400 0.00789369 
13450 0.00775325 
13500 0.0076161 
13550 0.00748208 
13600 0.0073511 
13650 0.00722306 
13700 0.00709793 
13750 0.00697559 
13800 0.00685597 
13850 0.00673898 
13900 0.00662457 
13950 0.00651271 
14000 0.00640327 
14050 0.00629619 
14100 0.00619141 
14150 0.00608891 
14200 0.0059886 
14250 0.00589041 
14300 0.00579429 
14350 0.00570018 
14400 0.00560806 
14450 0.00551784 
14500 0.00542948 
14550 0.00534294 
14600 0.00525818 
14650 0.00517515 
14700 0.0050938 
14750 0.00501408 
14800 0.00493597 
14850 0.00485944 
14900 0.00478444 
14950 0.00471091 
15000 0.00463884 
15050 0.00456817 
15100 0.00449888 
15150 0.00443094 
15200 0.00436431 
15250 0.00429895 
15300 0.00423486 
15350 0.00417201 
15400 0.00411035 
15450 0.00404985 
15500 0.00399049 
15550 0.00393225 
15600 0.0038751 
15650 0.00381901 
15700 0.00376396 
15750 0.00370992 
15800 0.00365687 
15850 0.0036048 
15900 0.00355368 
15950 0.00350348 
16000 0.00345418 
16050 0.00340576 
16100 0.00335822 
16150 0.00331152 
16200 0.00326565 
16250 0.00322058 
16300 0.00317631 
16350 0.00313283 
16400 0.00309011 
16450 0.00304814 
16500 0.00300689 
16550 0.00296634 
16600 0.0029265 
16650 0.00288734 
16700 0.00284884 
16750 0.002811 
16800 0.00277379 
16850 0.00273722 
16900 0.00270127 
16950 0.00266592 
17000 0.00263116 
17050 0.00259697 
17100 0.00256335 
17150 0.00253029 
17200 0.00249776 
17250 0.00246577 
17300 0.0024343 
17350 0.00240334 
17400 0.00237287 
17450 0.0023429 
17500 0.00231341 
17550 0.00228439 
17600 0.00225584 
17650 0.00222773 
17700 0.00220008 
17750 0.00217287 
17800 0.00214608 
17850 0.00211972 
17900 0.00209376 
17950 0.00206821 
18000 0.00204306 
18050 0.00201829 
18100 0.0019939 
18150 0.00196989 
18200 0.00194624 
18250 0.00192296 
18300 0.00190003 
18350 0.00187745 
18400 0.0018552 
18450 0.0018333 
18500 0.00181172 
18550 0.00179046 
18600 0.00176952 
18650 0.00174889 
18700 0.00172856 
18750 0.00170853 
18800 0.0016888 
18850 0.00166935 
18900 0.0016502 
18950 0.00163132 
19000 0.00161271 
19050 0.00159438 
19100 0.0015763 
19150 0.00155849 
19200 0.00154094 
19250 0.00152363 
19300 0.00150657 
19350 0.00148976 
19400 0.00147318 
19450 0.00145683 
19500 0.00144071 
19550 0.00142482 
19600 0.00140915 
19650 0.0013937 
19700 0.00137847 
19750 0.00136344 
19800 0.00134862 
19850 0.00133401 
19900 0.00131959 
19950 0.00130537 
20000 0.00129135 
20050 0.00127751 
20100 0.00126387 
20150 0.00125041 
20200 0.00123713 
20250 0.00122403 
20300 0.00121111 
20350 0.00119835 
20400 0.00118577 
20450 0.00117336 
20500 0.00116111 
20550 0.00114902 
20600 0.00113709 
20650 0.00112532 
20700 0.0011137 
20750 0.00110224 
20800 0.00109092 
20850 0.00107975 
20900 0.00106872 
20950 0.00105784 
21000 0.00104709 
21050 0.00103649 
21100 0.00102602 
21150 0.00101568 
21200 0.00100547 
21250 0.000995397 
21300 0.000985448 
21350 0.000975625 
21400 0.000965925 
21450 0.000956348 
21500 0.000946893 
21550 0.000937554 
21600 0.000928333 
21650 0.000919225 
21700 0.00091023 
21750 0.000901346 
21800 0.000892573 
21850 0.000883909 
21900 0.00087535 
21950 0.000866896 
22000 0.000858545 
22050 0.000850295 
22100 0.000842145 
22150 0.000834094 
22200 0.00082614 
22250 0.000818282 
22300 0.000810518 
22350 0.000802846 
22400 0.000795267 
22450 0.000787777 
22500 0.000780376 
22550 0.000773063 
22600 0.000765837 
22650 0.000758695 
22700 0.000751638 
22750 0.000744663 
22800 0.00073777 
22850 0.000730957 
22900 0.000724223 
22950 0.000717568 
23000 0.00071099 
23050 0.000704487 
23100 0.00069806 
23150 0.000691706 
23200 0.000685425 
23250 0.000679218 
23300 0.000673081 
23350 0.000667015 
23400 0.000661017 
23450 0.000655087 
23500 0.000649224 
23550 0.000643427 
23600 0.000637695 
23650 0.000632029 
23700 0.000626427 
23750 0.000620886 
23800 0.000615408 
23850 0.00060999 
23900 0.000604633 
23950 0.000599334 
24000 0.000594094 
24050 0.00058891 
24100 0.000583784 
24150 0.000578714 
24200 0.000573699 
24250 0.000568739 
24300 0.000563833 
24350 0.00055898 
24400 0.000554181 
24450 0.000549433 
24500 0.000544737 
24550 0.000540092 
24600 0.000535496 
24650 0.000530949 
24700 0.000526451 
24750 0.000522001 
24800 0.000517599 
24850 0.000513244 
24900 0.000508936 
24950 0.000504672 
25000 0.000500454 
25050 0.00049628 
25100 0.000492149 
25150 0.000488062 
25200 0.000484018 
25250 0.000480016 
25300 0.000476055 
25350 0.000472136 
25400 0.000468257 
25450 0.000464418 
25500 0.000460619 
25550 0.000456859 
25600 0.000453137 
25650 0.000449454 
25700 0.000445808 
25750 0.0004422 
25800 0.000438628 
25850 0.000435092 
25900 0.000431593 
25950 0.000428128 
26000 0.000424699 
26050 0.000421304 
26100 0.000417943 
26150 0.000414617 
26200 0.000411323 
26250 0.000408062 
26300 0.000404834 
26350 0.000401638 
26400 0.000398473 
26450 0.000395341 
26500 0.00039224 
26550 0.000389169 
26600 0.000386128 
26650 0.000383117 
26700 0.000380136 
26750 0.000377184 
26800 0.00037426 
26850 0.000371366 
26900 0.000368499 
26950 0.00036566 
27000 0.000362849 
27050 0.000360065 
27100 0.000357307 
27150 0.000354576 
27200 0.000351872 
27250 0.000349193 
27300 0.00034654 
27350 0.000343912 
27400 0.00034131 
27450 0.000338731 
27500 0.000336178 
27550 0.000333649 
27600 0.000331143 
27650 0.000328662 
27700 0.000326203 
27750 0.000323769 
27800 0.000321357 
27850 0.000318967 
27900 0.0003166 
27950 0.000314255 
28000 0.000311932 
28050 0.000309631 
28100 0.00030735 
28150 0.000305091 
28200 0.000302853 
28250 0.000300635 
28300 0.000298438 
28350 0.000296261 
28400 0.000294104 
28450 0.000291966 
28500 0.000289848 
28550 0.00028775 
28600 0.00028567 
28650 0.00028361 
28700 0.000281568 
28750 0.000279544 
28800 0.000277539 
28850 0.000275551 
28900 0.000273582 
28950 0.000271631 
29000 0.000269696 
29050 0.000267779 
29100 0.000265881 
29150 0.000264 
29200 0.000262135 
29250 0.000260287 
29300 0.000258456 
29350 0.000256641 
29400 0.000254841 
29450 0.000253058 
29500 0.00025129 
29550 0.000249536 
29600 0.000247796 
29650 0.000246072 
29700 0.000244362 
29750 0.000242668 
29800 0.000240988 
29850 0.000239323 
29900 0.000237672 
29950 0.000236035 
30000 0.000234413 
30050 0.000232836 
30100 0.000231273 
30150 0.000229723 
30200 0.000228187 
30250 0.000226663 
30300 0.000225152 
30350 0.000223654 
30400 0.000222168 
30450 0.000220665 
30500 0.000219175 
30550 0.000217697 
30600 0.000216232 
30650 0.000214779 
30700 0.000213338 
30750 0.000211909 
30800 0.000210493 
30850 0.000209089 
30900 0.000207696 
30950 0.000206315 
31000 0.000204946 
31050 0.000203588 
31100 0.000202241 
31150 0.000200906 
31200 0.000199581 
31250 0.000198267 
31300 0.000196964 
31350 0.000195672 
31400 0.00019439 
31450 0.000193119 
31500 0.000191858 
31550 0.000190608 
31600 0.000189368 
31650 0.000188138 
31700 0.000186919 
31750 0.000185709 
31800 0.000184509 
31850 0.000183319 
31900 0.000182138 
31950 0.000180967 
32000 0.000179806 
32050 0.000178654 
32100 0.000177511 
32150 0.000176378 
32200 0.000175253 
32250 0.000174138 
32300 0.000173031 
32350 0.000171933 
32400 0.000170843 
32450 0.000169763 
32500 0.000168691 
32550 0.000167627 
32600 0.000166572 
32650 0.000165525 
32700 0.000164486 
32750 0.000163456 
32800 0.000162433 
32850 0.000161419 
32900 0.000160412 
32950 0.000159414 
33000 0.000158423 
33050 0.00015744 
33100 0.000156465 
33150 0.000155497 
33200 0.000154537 
33250 0.000153585 
33300 0.000152639 
33350 0.000151701 
33400 0.00015077 
33450 0.000149847 
33500 0.00014893 
33550 0.000148021 
33600 0.000147118 
33650 0.000146223 
33700 0.000145334 
33750 0.000144452 
33800 0.000143576 
33850 0.000142708 
33900 0.000141846 
33950 0.00014099 
34000 0.000140141 
34050 0.000139299 
34100 0.000138462 
34150 0.000137632 
34200 0.000136808 
34250 0.000135991 
34300 0.000135179 
34350 0.000134374 
34400 0.000133574 
34450 0.000132781 
34500 0.000131993 
34550 0.000131212 
34600 0.000130436 
34650 0.000129666 
34700 0.000128902 
34750 0.000128143 
34800 0.00012739 
34850 0.000126643 
34900 0.000125901 
34950 0.000125164 
35000 0.000124433 
35050 0.000123707 
35100 0.000122987 
35150 0.000122272 
35200 0.000121562 
35250 0.000120857 
35300 0.000120157 
35350 0.000119462 
35400 0.000118773 
35450 0.000118088 
35500 0.000117408 
35550 0.000116734 
35600 0.000116064 
35650 0.000115399 
35700 0.000114738 
35750 0.000114083 
35800 0.000113432 
35850 0.000112785 
35900 0.000112144 
35950 0.000111507 
36000 0.000110874 
36050 0.000110246 
36100 0.000109622 
36150 0.000109003 
36200 0.000108388 
36250 0.000107778 
36300 0.000107172 
36350 0.00010657 
36400 0.000105972 
36450 0.000105379 
36500 0.00010479 
36550 0.000104205 
36600 0.000103624 
36650 0.000103047 
36700 0.000102474 
36750 0.000101905 
36800 0.00010134 
36850 0.000100779 
36900 0.000100222 
36950 9.96684E-005 
37000 9.91189E-005 
37050 9.85734E-005 
37100 9.80316E-005 
37150 9.74936E-005 
37200 9.69593E-005 
37250 9.64286E-005 
37300 9.59016E-005 
37350 9.53781E-005 
37400 9.48583E-005 
37450 9.4342E-005 
37500 9.38292E-005 
37550 9.33198E-005 
37600 9.28138E-005 
37650 9.23113E-005 
37700 9.18121E-005 
37750 9.13164E-005 
37800 9.0824E-005 
37850 9.03349E-005 
37900 8.98492E-005 
37950 8.93667E-005 
38000 8.88874E-005 
38050 8.84115E-005 
38100 8.79388E-005 
38150 8.74692E-005 
38200 8.70028E-005 
38250 8.65395E-005 
38300 8.60793E-005 
38350 8.56222E-005 
38400 8.51681E-005 
38450 8.4717E-005 
38500 8.42689E-005 
38550 8.38238E-005 
38600 8.33816E-005 
38650 8.29423E-005 
38700 8.2506E-005 
38750 8.20725E-005 
38800 8.16418E-005 
38850 8.1214E-005 
38900 8.0789E-005 
38950 8.03668E-005 
39000 7.99473E-005 
39050 7.95306E-005 
39100 7.91166E-005 
39150 7.87053E-005 
39200 7.82967E-005 
39250 7.78907E-005 
39300 7.74874E-005 
39350 7.70867E-005 
39400 7.66886E-005 
39450 7.6293E-005 
39500 7.59E-005 
39550 7.55096E-005 
39600 7.51216E-005 
39650 7.47362E-005 
39700 7.43532E-005 
39750 7.39727E-005 
39800 7.35946E-005 
39850 7.3219E-005 
39900 7.28457E-005 
39950 7.24748E-005 
40000 7.21063E-005 
40050 7.17403E-005 
40100 7.13765E-005 
40150 7.10151E-005 
40200 7.0656E-005 
40250 7.02991E-005 
40300 6.99445E-005 
40350 6.95921E-005 
40400 6.9242E-005 
40450 6.88941E-005 
40500 6.85483E-005 
40550 6.82047E-005 
40600 6.78633E-005 
40650 6.7524E-005 
40700 6.71869E-005 
40750 6.68518E-005 
40800 6.65189E-005 
40850 6.6188E-005 
40900 6.58592E-005 
40950 6.55324E-005 
41000 6.52076E-005 
41050 6.48849E-005 
41100 6.45642E-005 
41150 6.42454E-005 
41200 6.39286E-005 
41250 6.36138E-005 
41300 6.33009E-005 
41350 6.299E-005 
41400 6.26809E-005 
41450 6.23738E-005 
41500 6.20685E-005 
41550 6.17651E-005 
41600 6.14636E-005 
41650 6.11639E-005 
41700 6.0866E-005 
41750 6.057E-005 
41800 6.02757E-005 
41850 5.99833E-005 
41900 5.96926E-005 
41950 5.94035E-005 
42000 5.91163E-005 
42050 5.88307E-005 
42100 5.85469E-005 
42150 5.82648E-005 
42200 5.79844E-005 
42250 5.77057E-005 
42300 5.74287E-005 
42350 5.71534E-005 
42400 5.68798E-005 
42450 5.66078E-005 
42500 5.63375E-005 
42550 5.60688E-005 
42600 5.58016E-005 
42650 5.55361E-005 
42700 5.52721E-005 
42750 5.50098E-005 
42800 5.47489E-005 
42850 5.44897E-005 
42900 5.42319E-005 
42950 5.39757E-005 
43000 5.3721E-005 
43050 5.34679E-005 
43100 5.32163E-005 
43150 5.29662E-005 
43200 5.27175E-005 
43250 5.24703E-005 
43300 5.22246E-005 
43350 5.19803E-005 
43400 5.17374E-005 
43450 5.1496E-005 
43500 5.12559E-005 
43550 5.10173E-005 
43600 5.07801E-005 
43650 5.05442E-005 
43700 5.03097E-005 
43750 5.00766E-005 
43800 4.98448E-005 
43850 4.96143E-005 
43900 4.93852E-005 
43950 4.91573E-005 
44000 4.89308E-005 
44050 4.87056E-005 
44100 4.84817E-005 
44150 4.82591E-005 
44200 4.80378E-005 
44250 4.78177E-005 
44300 4.75989E-005 
44350 4.73814E-005 
44400 4.71651E-005 
44450 4.695E-005 
44500 4.67361E-005 
44550 4.65235E-005 
44600 4.63121E-005 
44650 4.61019E-005 
44700 4.58928E-005 
44750 4.5685E-005 
44800 4.54784E-005 
44850 4.52729E-005 
44900 4.50685E-005 
44950 4.48654E-005 
45000 4.46633E-005 
45050 4.44624E-005 
45100 4.42627E-005 
45150 4.4064E-005 
45200 4.38665E-005 
45250 4.36701E-005 
45300 4.34748E-005 
45350 4.32806E-005 
45400 4.30875E-005 
45450 4.28954E-005 
45500 4.27044E-005 
45550 4.25145E-005 
45600 4.23256E-005 
45650 4.21378E-005 
45700 4.19511E-005 
45750 4.17653E-005 
45800 4.15806E-005 
45850 4.1397E-005 
45900 4.12143E-005 
45950 4.10326E-005 
46000 4.0852E-005 
46050 4.06723E-005 
46100 4.04937E-005 
46150 4.0316E-005 
46200 4.01393E-005 
46250 3.99636E-005 
46300 3.97888E-005 
46350 3.9615E-005 
46400 3.94422E-005 
46450 3.92702E-005 
46500 3.90993E-005 
46550 3.89293E-005 
46600 3.87602E-005 
46650 3.85921E-005 
46700 3.84248E-005 
46750 3.82585E-005 
46800 3.80931E-005 
46850 3.79285E-005 
46900 3.77649E-005 
46950 3.76021E-005 
47000 3.74402E-005 
47050 3.72792E-005 
47100 3.7119E-005 
47150 3.69597E-005 
47200 3.68012E-005 
47250 3.66435E-005 
47300 3.64868E-005 
47350 3.63308E-005 
47400 3.61757E-005 
47450 3.60214E-005 
47500 3.5868E-005 
47550 3.57153E-005 
47600 3.55635E-005 
47650 3.54125E-005 
47700 3.52622E-005 
47750 3.51128E-005 
47800 3.49642E-005 
47850 3.48163E-005 
47900 3.46693E-005 
47950 3.4523E-005 
48000 3.43775E-005 
48050 3.42328E-005 
48100 3.40889E-005 
48150 3.39457E-005 
48200 3.38033E-005 
48250 3.36616E-005 
48300 3.35206E-005 
48350 3.33804E-005 
48400 3.3241E-005 
48450 3.31023E-005 
48500 3.29642E-005 
48550 3.2827E-005 
48600 3.26904E-005 
48650 3.25545E-005 
48700 3.24194E-005 
48750 3.22849E-005 
48800 3.21512E-005 
48850 3.20181E-005 
48900 3.18857E-005 
48950 3.1754E-005 
49000 3.1623E-005 
49050 3.14926E-005 
49100 3.13629E-005 
49150 3.12339E-005 
49200 3.11055E-005 
49250 3.09778E-005 
49300 3.08507E-005 
49350 3.07243E-005 
49400 3.05986E-005 
49450 3.04735E-005 
49500 3.0349E-005 
49550 3.02252E-005 
49600 3.0102E-005 
49650 2.99795E-005 
49700 2.98576E-005 
49750 2.97363E-005 
49800 2.96156E-005 
49850 2.94956E-005 
49900 2.93761E-005 
49950 2.92573E-005 
50000 2.9139E-005 
50050 2.90214E-005 
50100 2.89043E-005 
50150 2.87878E-005 
50200 2.8672E-005 
50250 2.85567E-005 
50300 2.8442E-005 
50350 2.83278E-005 
50400 2.82143E-005 
50450 2.81013E-005 
50500 2.79888E-005 
50550 2.7877E-005 
50600 2.77657E-005 
50650 2.76549E-005 
50700 2.75447E-005 
50750 2.7435E-005 
50800 2.7326E-005 
50850 2.72174E-005 
50900 2.71094E-005 
50950 2.70019E-005 
51000 2.68949E-005 
51050 2.67886E-005 
51100 2.66827E-005 
51150 2.65774E-005 
51200 2.64725E-005 
51250 2.63682E-005 
51300 2.62644E-005 
51350 2.61612E-005 
51400 2.60584E-005 
51450 2.59562E-005 
51500 2.58544E-005 
51550 2.57531E-005 
51600 2.56523E-005 
51650 2.5552E-005 
51700 2.54522E-005 
51750 2.53529E-005 
51800 2.5254E-005 
51850 2.51557E-005 
51900 2.50578E-005 
51950 2.49604E-005 
52000 2.48635E-005 
52050 2.4767E-005 
52100 2.4671E-005 
52150 2.45755E-005 
52200 2.44804E-005 
52250 2.43858E-005 
52300 2.42917E-005 
52350 2.4198E-005 
52400 2.41047E-005 
52450 2.40119E-005 
52500 2.39196E-005 
52550 2.38277E-005 
52600 2.37362E-005 
52650 2.36452E-005 
52700 2.35546E-005 
52750 2.34645E-005 
52800 2.33748E-005 
52850 2.32855E-005 
52900 2.31966E-005 
52950 2.31082E-005 
53000 2.30202E-005 
53050 2.29326E-005 
53100 2.28454E-005 
53150 2.27586E-005 
53200 2.26723E-005 
53250 2.25863E-005 
53300 2.25008E-005 
53350 2.24157E-005 
53400 2.23309E-005 
53450 2.22466E-005 
53500 2.21627E-005 
53550 2.20792E-005 
53600 2.19961E-005 
53650 2.19133E-005 
53700 2.1831E-005 
53750 2.17491E-005 
53800 2.16675E-005 
53850 2.15863E-005 
53900 2.15056E-005 
53950 2.14251E-005 
54000 2.13451E-005 
54050 2.12654E-005 
54100 2.11861E-005 
54150 2.11071E-005 
54200 2.10285E-005 
54250 2.09503E-005 
54300 2.08725E-005 
54350 2.0795E-005 
54400 2.07178E-005 
54450 2.06411E-005 
54500 2.05646E-005 
54550 2.04886E-005 
54600 2.04128E-005 
54650 2.03375E-005 
54700 2.02625E-005 
54750 2.0188E-005 
54800 2.01137E-005 
54850 2.00398E-005 
54900 1.9966E-005 
54950 1.98927E-005 
55000 1.98199E-005 
55050 1.97472E-005 
55100 1.96749E-005 
55150 1.96029E-005 
55200 1.95313E-005 
55250 1.946E-005 
55300 1.9389E-005 
55350 1.93184E-005 
55400 1.92481E-005 
55450 1.91782E-005 
55500 1.91085E-005 
55550 1.90392E-005 
55600 1.89701E-005 
55650 1.89013E-005 
55700 1.88329E-005 
55750 1.87647E-005 
55800 1.86969E-005 
55850 1.86294E-005 
55900 1.85622E-005 
55950 1.84952E-005 
56000 1.84286E-005 
56050 1.83623E-005 
56100 1.82963E-005 
56150 1.82306E-005 
56200 1.81652E-005 
56250 1.81001E-005 
56300 1.80353E-005 
56350 1.79707E-005 
56400 1.79065E-005 
56450 1.78425E-005 
56500 1.77789E-005 
56550 1.77155E-005 
56600 1.76524E-005 
56650 1.75895E-005 
56700 1.7527E-005 
56750 1.74647E-005 
56800 1.74027E-005 
56850 1.7341E-005 
56900 1.72796E-005 
56950 1.72184E-005 
57000 1.71575E-005 
57050 1.70969E-005 
57100 1.70366E-005 
57150 1.69765E-005 
57200 1.69167E-005 
57250 1.68571E-005 
57300 1.67978E-005 
57350 1.67388E-005 
57400 1.668E-005 
57450 1.66215E-005 
57500 1.65632E-005 
57550 1.65052E-005 
57600 1.64475E-005 
57650 1.639E-005 
57700 1.63327E-005 
57750 1.62757E-005 
57800 1.6219E-005 
57850 1.61625E-005 
57900 1.61062E-005 
57950 1.60502E-005 
58000 1.59945E-005 
58050 1.59389E-005 
58100 1.58836E-005 
58150 1.58286E-005 
58200 1.57738E-005 
58250 1.57192E-005 
58300 1.56649E-005 
58350 1.56108E-005 
58400 1.5557E-005 
58450 1.55033E-005 
58500 1.54499E-005 
58550 1.53968E-005 
58600 1.53438E-005 
58650 1.52911E-005 
58700 1.52386E-005 
58750 1.51864E-005 
58800 1.51344E-005 
58850 1.50825E-005 
58900 1.5031E-005 
58950 1.49796E-005 
59000 1.49284E-005 
59050 1.48775E-005 
59100 1.48268E-005 
59150 1.47763E-005 
59200 1.4726E-005 
59250 1.4676E-005 
59300 1.46261E-005 
59350 1.45764E-005 
59400 1.4527E-005 
59450 1.44778E-005 
59500 1.44288E-005 
59550 1.438E-005 
59600 1.43314E-005 
59650 1.4283E-005 
59700 1.42348E-005 
59750 1.41868E-005 
59800 1.4139E-005 
59850 1.40914E-005 
59900 1.4044E-005 
59950 1.39968E-005 
60000 1.39498E-005 
60050 1.3903E-005 
60100 1.38565E-005 
60150 1.38101E-005 
60200 1.37639E-005 
60250 1.37178E-005 
60300 1.3672E-005 
60350 1.36264E-005 
60400 1.3581E-005 
60450 1.35357E-005 
60500 1.34907E-005 
60550 1.34458E-005 
60600 1.34011E-005 
60650 1.33566E-005 
60700 1.33123E-005 
60750 1.32682E-005 
60800 1.32242E-005 
60850 1.31805E-005 
60900 1.31369E-005 
60950 1.30935E-005 
61000 1.30503E-005 
61050 1.30073E-005 
61100 1.29644E-005 
61150 1.29217E-005 
61200 1.28792E-005 
61250 1.28369E-005 
61300 1.27947E-005 
61350 1.27527E-005 
61400 1.27109E-005 
61450 1.26693E-005 
61500 1.26278E-005 
61550 1.25865E-005 
61600 1.25454E-005 
61650 1.25044E-005 
61700 1.24636E-005 
61750 1.2423E-005 
61800 1.23825E-005 
61850 1.23422E-005 
61900 1.2302E-005 
61950 1.22621E-005 
62000 1.22222E-005 
62050 1.21826E-005 
62100 1.21431E-005 
62150 1.21038E-005 
62200 1.20646E-005 
62250 1.20256E-005 
62300 1.19867E-005 
62350 1.1948E-005 
62400 1.19095E-005 
62450 1.18711E-005 
62500 1.18329E-005 
62550 1.17948E-005 
62600 1.17569E-005 
62650 1.17191E-005 
62700 1.16815E-005 
62750 1.1644E-005 
62800 1.16067E-005 
62850 1.15695E-005 
62900 1.15325E-005 
62950 1.14957E-005 
63000 1.14589E-005 
63050 1.14223E-005 
63100 1.13859E-005 
63150 1.13496E-005 
63200 1.13135E-005 
63250 1.12775E-005 
63300 1.12416E-005 
63350 1.12059E-005 
63400 1.11703E-005 
63450 1.11349E-005 
63500 1.10996E-005 
63550 1.10644E-005 
63600 1.10294E-005 
63650 1.09945E-005 
63700 1.09598E-005 
63750 1.09252E-005 
63800 1.08907E-005 
63850 1.08564E-005 
63900 1.08222E-005 
63950 1.07881E-005 
64000 1.07542E-005 
64050 1.07204E-005 
64100 1.06868E-005 
64150 1.06532E-005 
64200 1.06199E-005 
64250 1.05866E-005 
64300 1.05535E-005 
64350 1.05205E-005 
64400 1.04876E-005 
64450 1.04549E-005 
64500 1.04223E-005 
64550 1.03898E-005 
64600 1.03574E-005 
64650 1.03252E-005 
64700 1.02931E-005 
64750 1.02611E-005 
64800 1.02292E-005 
64850 1.01975E-005 
64900 1.01659E-005 
64950 1.01344E-005 
65000 1.0103E-005 
65050 1.00718E-005 
65100 1.00406E-005 
65150 1.00096E-005 
65200 9.97876E-006 
65250 9.94799E-006 
65300 9.91734E-006 
65350 9.88681E-006 
65400 9.8564E-006 
65450 9.8261E-006 
65500 9.79592E-006 
65550 9.76585E-006 
65600 9.7359E-006 
65650 9.70607E-006 
65700 9.67635E-006 
65750 9.64674E-006 
65800 9.61725E-006 
65850 9.58787E-006 
65900 9.5586E-006 
65950 9.52944E-006 
66000 9.5004E-006 
66050 9.47147E-006 
66100 9.44264E-006 
66150 9.41393E-006 
66200 9.38532E-006 
66250 9.35683E-006 
66300 9.32844E-006 
66350 9.30016E-006 
66400 9.27198E-006 
66450 9.24392E-006 
66500 9.21596E-006 
66550 9.1881E-006 
66600 9.16035E-006 
66650 9.13271E-006 
66700 9.10517E-006 
66750 9.07773E-006 
66800 9.0504E-006 
66850 9.02317E-006 
66900 8.99604E-006 
66950 8.96901E-006 
67000 8.94208E-006 
67050 8.91526E-006 
67100 8.88853E-006 
67150 8.86191E-006 
67200 8.83539E-006 
67250 8.80896E-006 
67300 8.78263E-006 
67350 8.7564E-006 
67400 8.73028E-006 
67450 8.70425E-006 
67500 8.67833E-006 
67550 8.6525E-006 
67600 8.62677E-006 
67650 8.60113E-006 
67700 8.57559E-006 
67750 8.55015E-006 
67800 8.5248E-006 
67850 8.49954E-006 
67900 8.47438E-006 
67950 8.4493E-006 
68000 8.42433E-006 
68050 8.39943E-006 
68100 8.37463E-006 
68150 8.34992E-006 
68200 8.3253E-006 
68250 8.30077E-006 
68300 8.27633E-006 
68350 8.25199E-006 
68400 8.22773E-006 
68450 8.20356E-006 
68500 8.17948E-006 
68550 8.15549E-006 
68600 8.13158E-006 
68650 8.10776E-006 
68700 8.08403E-006 
68750 8.06039E-006 
68800 8.03684E-006 
68850 8.01337E-006 
68900 7.98998E-006 
68950 7.96668E-006 
69000 7.94347E-006 
69050 7.92034E-006 
69100 7.89729E-006 
69150 7.87433E-006 
69200 7.85145E-006 
69250 7.82866E-006 
69300 7.80595E-006 
69350 7.78331E-006 
69400 7.76077E-006 
69450 7.7383E-006 
69500 7.71592E-006 
69550 7.69361E-006 
69600 7.67139E-006 
69650 7.64925E-006 
69700 7.62718E-006 
69750 7.6052E-006 
69800 7.58329E-006 
69850 7.56147E-006 
69900 7.53972E-006 
69950 7.51805E-006 
70000 7.49646E-006 
70050 7.47495E-006 
70100 7.45352E-006 
70150 7.43217E-006 
70200 7.41089E-006 
70250 7.38969E-006 
70300 7.36856E-006 
70350 7.34751E-006 
70400 7.32654E-006 
70450 7.30564E-006 
70500 7.28481E-006 
70550 7.26406E-006 
70600 7.24338E-006 
70650 7.22278E-006 
70700 7.20225E-006 
70750 7.18179E-006 
70800 7.1614E-006 
70850 7.14109E-006 
70900 7.12085E-006 
70950 7.10068E-006 
71000 7.08058E-006 
71050 7.06056E-006 
71100 7.0406E-006 
71150 7.02072E-006 
71200 7.0009E-006 
71250 6.98116E-006 
71300 6.96148E-006 
71350 6.94188E-006 
71400 6.92234E-006 
71450 6.90287E-006 
71500 6.88347E-006 
71550 6.86414E-006 
71600 6.84487E-006 
71650 6.82568E-006 
71700 6.80655E-006 
71750 6.78749E-006 
71800 6.76849E-006 
71850 6.74956E-006 
71900 6.7307E-006 
71950 6.71191E-006 
72000 6.69317E-006 
72050 6.67451E-006 
72100 6.6559E-006 
72150 6.63737E-006 
72200 6.61889E-006 
72250 6.60048E-006 
72300 6.58214E-006 
72350 6.56386E-006 
72400 6.54564E-006 
72450 6.52748E-006 
72500 6.50939E-006 
72550 6.49136E-006 
72600 6.47339E-006 
72650 6.45549E-006 
72700 6.43765E-006 
72750 6.41987E-006 
72800 6.40215E-006 
72850 6.38449E-006 
72900 6.36689E-006 
72950 6.34935E-006 
73000 6.33187E-006 
73050 6.31445E-006 
73100 6.29709E-006 
73150 6.27979E-006 
73200 6.26256E-006 
73250 6.24538E-006 
73300 6.22825E-006 
73350 6.21119E-006 
73400 6.19419E-006 
73450 6.17724E-006 
73500 6.16035E-006 
73550 6.14353E-006 
73600 6.12676E-006 
73650 6.11005E-006 
73700 6.0934E-006 
73750 6.07681E-006 
73800 6.06027E-006 
73850 6.04379E-006 
73900 6.02736E-006 
73950 6.01099E-006 
74000 5.99467E-006 
74050 5.97841E-006 
74100 5.96221E-006 
74150 5.94606E-006 
74200 5.92996E-006 
74250 5.91392E-006 
74300 5.89793E-006 
74350 5.88199E-006 
74400 5.8661E-006 
74450 5.85027E-006 
74500 5.8345E-006 
74550 5.81877E-006 
74600 5.8031E-006 
74650 5.78749E-006 
74700 5.77192E-006 
74750 5.75641E-006 
74800 5.74095E-006 
74850 5.72554E-006 
74900 5.71018E-006 
74950 5.69488E-006 
75000 5.67962E-006 
75050 5.66442E-006 
75100 5.64927E-006 
75150 5.63418E-006 
75200 5.61913E-006 
75250 5.60413E-006 
75300 5.58918E-006 
75350 5.57428E-006 
75400 5.55944E-006 
75450 5.54464E-006 
75500 5.52989E-006 
75550 5.51518E-006 
75600 5.50053E-006 
75650 5.48593E-006 
75700 5.47137E-006 
75750 5.45687E-006 
75800 5.44241E-006 
75850 5.428E-006 
75900 5.41363E-006 
75950 5.39932E-006 
76000 5.38505E-006 
76050 5.37083E-006 
76100 5.35666E-006 
76150 5.34253E-006 
76200 5.32845E-006 
76250 5.31441E-006 
76300 5.30043E-006 
76350 5.28648E-006 
76400 5.27259E-006 
76450 5.25874E-006 
76500 5.24493E-006 
76550 5.23117E-006 
76600 5.21746E-006 
76650 5.20379E-006 
76700 5.19017E-006 
76750 5.17659E-006 
76800 5.16305E-006 
76850 5.14956E-006 
76900 5.13611E-006 
76950 5.12271E-006 
77000 5.10935E-006 
77050 5.09603E-006 
77100 5.08276E-006 
77150 5.06953E-006 
77200 5.05634E-006 
77250 5.0432E-006 
77300 5.0301E-006 
77350 5.01704E-006 
77400 5.00402E-006 
77450 4.99105E-006 
77500 4.97811E-006 
77550 4.96522E-006 
77600 4.95238E-006 
77650 4.93957E-006 
77700 4.9268E-006 
77750 4.91408E-006 
77800 4.90139E-006 
77850 4.88875E-006 
77900 4.87615E-006 
77950 4.86359E-006 
78000 4.85107E-006 
78050 4.83859E-006 
78100 4.82615E-006 
78150 4.81375E-006 
78200 4.80139E-006 
78250 4.78906E-006 
78300 4.77678E-006 
78350 4.76454E-006 
78400 4.75234E-006 
78450 4.74017E-006 
78500 4.72805E-006 
78550 4.71596E-006 
78600 4.70392E-006 
78650 4.69191E-006 
78700 4.67993E-006 
78750 4.668E-006 
78800 4.6561E-006 
78850 4.64424E-006 
78900 4.63242E-006 
78950 4.62064E-006 
79000 4.60889E-006 
79050 4.59718E-006 
79100 4.58551E-006 
79150 4.57387E-006 
79200 4.56227E-006 
79250 4.55071E-006 
79300 4.53919E-006 
79350 4.5277E-006 
79400 4.51626E-006 
79450 4.50485E-006 
79500 4.49347E-006 
79550 4.48213E-006 
79600 4.47083E-006 
79650 4.45956E-006 
79700 4.44833E-006 
79750 4.43713E-006 
79800 4.42597E-006 
79850 4.41484E-006 
79900 4.40375E-006 
79950 4.3927E-006 
80000 4.38167E-006 
80050 4.37069E-006 
80100 4.35973E-006 
80150 4.34882E-006 
80200 4.33793E-006 
80250 4.32708E-006 
80300 4.31627E-006 
80350 4.30548E-006 
80400 4.29473E-006 
80450 4.28402E-006 
80500 4.27334E-006 
80550 4.26269E-006 
80600 4.25207E-006 
80650 4.24149E-006 
80700 4.23094E-006 
80750 4.22043E-006 
80800 4.20994E-006 
80850 4.19949E-006 
80900 4.18907E-006 
80950 4.17868E-006 
81000 4.16833E-006 
81050 4.15801E-006 
81100 4.14772E-006 
81150 4.13746E-006 
81200 4.12723E-006 
81250 4.11704E-006 
81300 4.10687E-006 
81350 4.09674E-006 
81400 4.08664E-006 
81450 4.07657E-006 
81500 4.06653E-006 
81550 4.05652E-006 
81600 4.04655E-006 
81650 4.0366E-006 
81700 4.02668E-006 
81750 4.0168E-006 
81800 4.00694E-006 
81850 3.99712E-006 
81900 3.98732E-006 
81950 3.97756E-006 
82000 3.96782E-006 
82050 3.95812E-006 
82100 3.94844E-006 
82150 3.9388E-006 
82200 3.92918E-006 
82250 3.91959E-006 
82300 3.91003E-006 
82350 3.90051E-006 
82400 3.89101E-006 
82450 3.88154E-006 
82500 3.87209E-006 
82550 3.86268E-006 
82600 3.85329E-006 
82650 3.84394E-006 
82700 3.83461E-006 
82750 3.82531E-006 
82800 3.81604E-006 
82850 3.8068E-006 
82900 3.79758E-006 
82950 3.78839E-006 
83000 3.77924E-006 
83050 3.7701E-006 
83100 3.761E-006 
83150 3.75192E-006 
83200 3.74287E-006 
83250 3.73384E-006 
83300 3.72484E-006 
83350 3.71587E-006 
83400 3.70693E-006 
83450 3.69802E-006 
83500 3.68913E-006 
83550 3.68027E-006 
83600 3.67143E-006 
83650 3.66262E-006 
83700 3.65384E-006 
83750 3.64508E-006 
83800 3.63635E-006 
83850 3.62765E-006 
83900 3.61897E-006 
83950 3.61032E-006 
84000 3.60169E-006 
84050 3.59309E-006 
84100 3.58452E-006 
84150 3.57597E-006 
84200 3.56745E-006 
84250 3.55896E-006 
84300 3.55049E-006 
84350 3.54204E-006 
84400 3.53362E-006 
84450 3.52523E-006 
84500 3.51686E-006 
84550 3.50851E-006 
84600 3.50019E-006 
84650 3.4919E-006 
84700 3.48362E-006 
84750 3.47538E-006 
84800 3.46715E-006 
84850 3.45896E-006 
84900 3.45078E-006 
84950 3.44263E-006 
85000 3.43451E-006 
85050 3.4264E-006 
85100 3.41832E-006 
85150 3.41027E-006 
85200 3.40223E-006 
85250 3.39422E-006 
85300 3.38624E-006 
85350 3.37828E-006 
85400 3.37034E-006 
85450 3.36242E-006 
85500 3.35453E-006 
85550 3.34666E-006 
85600 3.33882E-006 
85650 3.33099E-006 
85700 3.32319E-006 
85750 3.31542E-006 
85800 3.30766E-006 
85850 3.29993E-006 
85900 3.29222E-006 
85950 3.28453E-006 
86000 3.27687E-006 
86050 3.26923E-006 
86100 3.26161E-006 
86150 3.25401E-006 
86200 3.24644E-006 
86250 3.23888E-006 
86300 3.23135E-006 
86350 3.22384E-006 
86400 3.21635E-006 
86450 3.20889E-006 
86500 3.20144E-006 
86550 3.19402E-006 
86600 3.18662E-006 
86650 3.17925E-006 
86700 3.17189E-006 
86750 3.16455E-006 
86800 3.15724E-006 
86850 3.14995E-006 
86900 3.14267E-006 
86950 3.13542E-006 
87000 3.12819E-006 
87050 3.12098E-006 
87100 3.11379E-006 
87150 3.10663E-006 
87200 3.09948E-006 
87250 3.09235E-006 
87300 3.08525E-006 
87350 3.07816E-006 
87400 3.0711E-006 
87450 3.06405E-006 
87500 3.05703E-006 
87550 3.05002E-006 
87600 3.04304E-006 
87650 3.03607E-006 
87700 3.02913E-006 
87750 3.0222E-006 
87800 3.0153E-006 
87850 3.00841E-006 
87900 3.00154E-006 
87950 2.9947E-006 
88000 2.98787E-006 
88050 2.98106E-006 
88100 2.97427E-006 
88150 2.9675E-006 
88200 2.96075E-006 
88250 2.95402E-006 
88300 2.94731E-006 
88350 2.94061E-006 
88400 2.93394E-006 
88450 2.92729E-006 
88500 2.92065E-006 
88550 2.91403E-006 
88600 2.90743E-006 
88650 2.90085E-006 
88700 2.89429E-006 
88750 2.88775E-006 
88800 2.88122E-006 
88850 2.87472E-006 
88900 2.86823E-006 
88950 2.86176E-006 
89000 2.85531E-006 
89050 2.84888E-006 
89100 2.84246E-006 
89150 2.83607E-006 
89200 2.82969E-006 
89250 2.82333E-006 
89300 2.81699E-006 
89350 2.81067E-006 
89400 2.80436E-006 
89450 2.79807E-006 
89500 2.7918E-006 
89550 2.78555E-006 
89600 2.77931E-006 
89650 2.7731E-006 
89700 2.7669E-006 
89750 2.76071E-006 
89800 2.75455E-006 
89850 2.7484E-006 
89900 2.74227E-006 
89950 2.73615E-006 
90000 2.73006E-006 
90050 2.72397E-006 
90100 2.71791E-006 
90150 2.71186E-006 
90200 2.70583E-006 
90250 2.69982E-006 
90300 2.69382E-006 
90350 2.68784E-006 
90400 2.68188E-006 
90450 2.67593E-006 
90500 2.67E-006 
90550 2.66409E-006 
90600 2.65819E-006 
90650 2.65231E-006 
90700 2.64644E-006 
90750 2.64059E-006 
90800 2.63476E-006 
90850 2.62894E-006 
90900 2.62314E-006 
90950 2.61736E-006 
91000 2.61159E-006 
91050 2.60584E-006 
91100 2.6001E-006 
91150 2.59438E-006 
91200 2.58867E-006 
91250 2.58298E-006 
91300 2.57731E-006 
91350 2.57165E-006 
91400 2.56601E-006 
91450 2.56038E-006 
91500 2.55477E-006 
91550 2.54917E-006 
91600 2.54359E-006 
91650 2.53802E-006 
91700 2.53247E-006 
91750 2.52693E-006 
91800 2.52141E-006 
91850 2.51591E-006 
91900 2.51042E-006 
91950 2.50494E-006 
92000 2.49948E-006 
92050 2.49403E-006 
92100 2.4886E-006 
92150 2.48319E-006 
92200 2.47779E-006 
92250 2.4724E-006 
92300 2.46703E-006 
92350 2.46167E-006 
92400 2.45633E-006 
92450 2.451E-006 
92500 2.44568E-006 
92550 2.44038E-006 
92600 2.4351E-006 
92650 2.42983E-006 
92700 2.42457E-006 
92750 2.41933E-006 
92800 2.4141E-006 
92850 2.40889E-006 
92900 2.40369E-006 
92950 2.3985E-006 
93000 2.39333E-006 
93050 2.38817E-006 
93100 2.38303E-006 
93150 2.3779E-006 
93200 2.37278E-006 
93250 2.36768E-006 
93300 2.36259E-006 
93350 2.35751E-006 
93400 2.35245E-006 
93450 2.3474E-006 
93500 2.34237E-006 
93550 2.33735E-006 
93600 2.33234E-006 
93650 2.32735E-006 
93700 2.32237E-006 
93750 2.3174E-006 
93800 2.31245E-006 
93850 2.30751E-006 
93900 2.30258E-006 
93950 2.29766E-006 
94000 2.29276E-006 
94050 2.28788E-006 
94100 2.283E-006 
94150 2.27814E-006 
94200 2.27329E-006 
94250 2.26845E-006 
94300 2.26363E-006 
94350 2.25882E-006 
94400 2.25402E-006 
94450 2.24924E-006 
94500 2.24446E-006 
94550 2.2397E-006 
94600 2.23496E-006 
94650 2.23022E-006 
94700 2.2255E-006 
94750 2.22079E-006 
94800 2.21609E-006 
94850 2.21141E-006 
94900 2.20674E-006 
94950 2.20208E-006 
95000 2.19743E-006 
95050 2.19279E-006 
95100 2.18817E-006 
95150 2.18356E-006 
95200 2.17896E-006 
95250 2.17437E-006 
95300 2.1698E-006 
95350 2.16523E-006 
95400 2.16068E-006 
95450 2.15614E-006 
95500 2.15161E-006 
95550 2.1471E-006 
95600 2.1426E-006 
95650 2.1381E-006 
95700 2.13362E-006 
95750 2.12916E-006 
95800 2.1247E-006 
95850 2.12025E-006 
95900 2.11582E-006 
95950 2.1114E-006 
96000 2.10699E-006 
96050 2.10259E-006 
96100 2.0982E-006 
96150 2.09383E-006 
96200 2.08946E-006 
96250 2.08511E-006 
96300 2.08077E-006 
96350 2.07644E-006 
96400 2.07212E-006 
96450 2.06781E-006 
96500 2.06352E-006 
96550 2.05923E-006 
96600 2.05496E-006 
96650 2.0507E-006 
96700 2.04644E-006 
96750 2.0422E-006 
96800 2.03797E-006 
96850 2.03376E-006 
96900 2.02955E-006 
96950 2.02535E-006 
97000 2.02117E-006 
97050 2.01699E-006 
97100 2.01283E-006 
97150 2.00867E-006 
97200 2.00453E-006 
97250 2.0004E-006 
97300 1.99628E-006 
97350 1.99217E-006 
97400 1.98807E-006 
97450 1.98398E-006 
97500 1.9799E-006 
97550 1.97583E-006 
97600 1.97177E-006 
97650 1.96773E-006 
97700 1.96369E-006 
97750 1.95966E-006 
97800 1.95565E-006 
97850 1.95164E-006 
97900 1.94764E-006 
97950 1.94366E-006 
98000 1.93968E-006 
98050 1.93572E-006 
98100 1.93176E-006 
98150 1.92781E-006 
98200 1.92388E-006 
98250 1.91995E-006 
98300 1.91604E-006 
98350 1.91213E-006 
98400 1.90824E-006 
98450 1.90435E-006 
98500 1.90047E-006 
98550 1.89661E-006 
98600 1.89275E-006 
98650 1.88891E-006 
98700 1.88507E-006 
98750 1.88124E-006 
98800 1.87743E-006 
98850 1.87362E-006 
98900 1.86982E-006 
98950 1.86603E-006 
99000 1.86225E-006 
99050 1.85848E-006 
99100 1.85472E-006 
99150 1.85097E-006 
99200 1.84723E-006 
99250 1.8435E-006 
99300 1.83977E-006 
99350 1.83606E-006 
99400 1.83236E-006 
99450 1.82866E-006 
99500 1.82498E-006 
99550 1.8213E-006 
99600 1.81764E-006 
99650 1.81398E-006 
99700 1.81034E-006 
99750 1.8067E-006 
99800 1.80307E-006 
99850 1.79945E-006 
99900 1.79585E-006 
99950 1.79224E-006 
100000 1.78865E-006 
