#F U:\Beamline I20\I20-2_EDE\!M2 and filters heat load\xop\mirrors\Si-4p5mrad.dat
#C Si mirror 4.5mrad
#S 1 File written by xplot on Wed May 20 15:35:43 2009
#N 2
#L    Photon Energy [eV]  Intens after oe #1
50 0.995512 
100 0.925274 
150 0.943786 
200 0.952807 
250 0.95551 
300 0.957687 
350 0.959344 
400 0.961531 
450 0.963265 
500 0.964939 
550 0.966347 
600 0.967704 
650 0.969065 
700 0.970178 
750 0.970902 
800 0.971614 
850 0.972543 
900 0.973397 
950 0.974433 
1000 0.975368 
1050 0.976205 
1100 0.976902 
1150 0.977308 
1200 0.977683 
1250 0.978029 
1300 0.978332 
1350 0.978605 
1400 0.978837 
1450 0.979018 
1500 0.979146 
1550 0.979246 
1600 0.979243 
1650 0.979087 
1700 0.978676 
1750 0.977751 
1800 0.974911 
1850 0.649345 
1900 0.798605 
1950 0.81602 
2000 0.826396 
2050 0.833627 
2100 0.839297 
2150 0.843908 
2200 0.847817 
2250 0.851175 
2300 0.854179 
2350 0.856839 
2400 0.859261 
2450 0.861495 
2500 0.863539 
2550 0.865424 
2600 0.867193 
2650 0.868858 
2700 0.870421 
2750 0.871892 
2800 0.873271 
2850 0.874576 
2900 0.875823 
2950 0.877006 
3000 0.87813 
3050 0.8792 
3100 0.880222 
3150 0.881197 
3200 0.882126 
3250 0.883012 
3300 0.883858 
3350 0.884666 
3400 0.885438 
3450 0.886176 
3500 0.88688 
3550 0.887551 
3600 0.888177 
3650 0.888774 
3700 0.889342 
3750 0.889883 
3800 0.890399 
3850 0.890891 
3900 0.891338 
3950 0.891757 
4000 0.892153 
4050 0.892528 
4100 0.892878 
4150 0.893181 
4200 0.893464 
4250 0.893728 
4300 0.893966 
4350 0.894158 
4400 0.894333 
4450 0.89449 
4500 0.894598 
4550 0.894681 
4600 0.894748 
4650 0.894771 
4700 0.894761 
4750 0.894733 
4800 0.894659 
4850 0.894549 
4900 0.89442 
4950 0.894235 
5000 0.89402 
5050 0.893775 
5100 0.893468 
5150 0.893138 
5200 0.892751 
5250 0.892314 
5300 0.891842 
5350 0.891291 
5400 0.890706 
5450 0.890043 
5500 0.889322 
5550 0.888533 
5600 0.887659 
5650 0.886725 
5700 0.885673 
5750 0.884554 
5800 0.883298 
5850 0.881951 
5900 0.880456 
5950 0.878835 
6000 0.877044 
6050 0.875083 
6100 0.872911 
6150 0.870515 
6200 0.867852 
6250 0.864886 
6300 0.861561 
6350 0.857821 
6400 0.853577 
6450 0.848729 
6500 0.84312 
6550 0.836588 
6600 0.82884 
6650 0.819541 
6700 0.808079 
6750 0.793661 
6800 0.7748 
6850 0.749247 
6900 0.712983 
6950 0.660836 
7000 0.592059 
7050 0.519123 
7100 0.455162 
7150 0.40288 
7200 0.360357 
7250 0.325295 
7300 0.295905 
7350 0.270895 
7400 0.249338 
7450 0.230553 
7500 0.214033 
7550 0.199383 
7600 0.186303 
7650 0.174553 
7700 0.163945 
7750 0.154321 
7800 0.145552 
7850 0.137535 
7900 0.130177 
7950 0.123404 
8000 0.117152 
8050 0.111364 
8100 0.105996 
8150 0.101003 
8200 0.0963518 
8250 0.0920099 
8300 0.0879485 
8350 0.0841452 
8400 0.0805764 
8450 0.0772226 
8500 0.0740687 
8550 0.0710963 
8600 0.0682923 
8650 0.0656449 
8700 0.0631408 
8750 0.0607716 
8800 0.0585272 
8850 0.0563978 
8900 0.0543783 
8950 0.0524594 
9000 0.0506338 
9050 0.0488995 
9100 0.0472473 
9150 0.0456716 
9200 0.0441734 
9250 0.0427425 
9300 0.041375 
9350 0.0400761 
9400 0.0388328 
9450 0.0376421 
9500 0.0365205 
9550 0.0354445 
9600 0.0344117 
9650 0.0334914 
9700 0.0326087 
9750 0.0317582 
9800 0.0307873 
9850 0.029829 
9900 0.0289098 
9950 0.0280112 
10000 0.0271418 
10050 0.0263072 
10100 0.025538 
10150 0.0248317 
10200 0.0241512 
10250 0.023495 
10300 0.0228618 
10350 0.022251 
10400 0.0216617 
10450 0.0210956 
10500 0.0205492 
10550 0.0200213 
10600 0.0195123 
10650 0.0190212 
10700 0.0185463 
10750 0.0180871 
10800 0.0176439 
10850 0.0172149 
10900 0.0167995 
10950 0.0163978 
11000 0.0160091 
11050 0.0156323 
11100 0.0152672 
11150 0.0149139 
11200 0.0145712 
11250 0.0142387 
11300 0.0139164 
11350 0.0136038 
11400 0.0133004 
11450 0.0130057 
11500 0.0127199 
11550 0.0124423 
11600 0.0121726 
11650 0.0119105 
11700 0.011656 
11750 0.0114085 
11800 0.0111678 
11850 0.0109339 
11900 0.0107064 
11950 0.0104851 
12000 0.0102697 
12050 0.01006 
12100 0.00985601 
12150 0.00965733 
12200 0.00946382 
12250 0.00927545 
12300 0.00909198 
12350 0.00891319 
12400 0.00873894 
12450 0.00856919 
12500 0.00840372 
12550 0.00824237 
12600 0.008085 
12650 0.0079316 
12700 0.00778198 
12750 0.00763599 
12800 0.00749352 
12850 0.00735452 
12900 0.00721887 
12950 0.00708644 
13000 0.00695712 
13050 0.00683087 
13100 0.00670761 
13150 0.00658719 
13200 0.00646956 
13250 0.00635463 
13300 0.00624237 
13350 0.00613266 
13400 0.00602542 
13450 0.00592058 
13500 0.00581813 
13550 0.00571796 
13600 0.00562 
13650 0.00552419 
13700 0.00543049 
13750 0.00533883 
13800 0.00524916 
13850 0.00516141 
13900 0.00507555 
13950 0.00499155 
14000 0.00490933 
14050 0.00482884 
14100 0.00475004 
14150 0.00467291 
14200 0.00459739 
14250 0.00452343 
14300 0.00445099 
14350 0.00438004 
14400 0.00431055 
14450 0.00424246 
14500 0.00417575 
14550 0.00411038 
14600 0.00404632 
14650 0.00398355 
14700 0.00392201 
14750 0.00386169 
14800 0.00380256 
14850 0.0037446 
14900 0.00368777 
14950 0.00363204 
15000 0.00357739 
15050 0.00352378 
15100 0.0034712 
15150 0.00341962 
15200 0.00336901 
15250 0.00331936 
15300 0.00327064 
15350 0.00322285 
15400 0.00317596 
15450 0.00312993 
15500 0.00308475 
15550 0.0030404 
15600 0.00299687 
15650 0.00295414 
15700 0.00291217 
15750 0.00287097 
15800 0.00283051 
15850 0.00279079 
15900 0.00275177 
15950 0.00271344 
16000 0.0026758 
16050 0.00263881 
16100 0.00260248 
16150 0.00256679 
16200 0.00253171 
16250 0.00249725 
16300 0.00246338 
16350 0.0024301 
16400 0.0023974 
16450 0.00236526 
16500 0.00233367 
16550 0.00230261 
16600 0.00227207 
16650 0.00224205 
16700 0.00221254 
16750 0.00218351 
16800 0.00215497 
16850 0.00212691 
16900 0.00209931 
16950 0.00207218 
17000 0.00204548 
17050 0.00201923 
17100 0.0019934 
17150 0.00196799 
17200 0.00194299 
17250 0.00191839 
17300 0.00189419 
17350 0.00187037 
17400 0.00184693 
17450 0.00182387 
17500 0.00180117 
17550 0.00177883 
17600 0.00175684 
17650 0.00173519 
17700 0.00171389 
17750 0.00169292 
17800 0.00167228 
17850 0.00165195 
17900 0.00163194 
17950 0.00161224 
18000 0.00159283 
18050 0.00157373 
18100 0.00155491 
18150 0.00153638 
18200 0.00151812 
18250 0.00150014 
18300 0.00148244 
18350 0.00146499 
18400 0.00144781 
18450 0.00143089 
18500 0.00141421 
18550 0.00139778 
18600 0.00138159 
18650 0.00136563 
18700 0.00134991 
18750 0.00133442 
18800 0.00131916 
18850 0.00130411 
18900 0.00128929 
18950 0.00127467 
19000 0.00126027 
19050 0.00124607 
19100 0.00123208 
19150 0.00121828 
19200 0.00120468 
19250 0.00119128 
19300 0.00117806 
19350 0.00116503 
19400 0.00115217 
19450 0.0011395 
19500 0.00112701 
19550 0.00111468 
19600 0.00110253 
19650 0.00109055 
19700 0.00107872 
19750 0.00106707 
19800 0.00105557 
19850 0.00104422 
19900 0.00103303 
19950 0.00102199 
20000 0.0010111 
20050 0.00100036 
20100 0.000989762 
20150 0.000979307 
20200 0.000968991 
20250 0.000958813 
20300 0.000948769 
20350 0.000938858 
20400 0.000929077 
20450 0.000919427 
20500 0.000909903 
20550 0.000900505 
20600 0.000891228 
20650 0.000882072 
20700 0.000873034 
20750 0.000864114 
20800 0.000855308 
20850 0.000846616 
20900 0.000838035 
20950 0.000829563 
21000 0.0008212 
21050 0.000812942 
21100 0.00080479 
21150 0.00079674 
21200 0.000788792 
21250 0.000780944 
21300 0.000773195 
21350 0.000765542 
21400 0.000757984 
21450 0.000750522 
21500 0.000743153 
21550 0.000735875 
21600 0.000728687 
21650 0.000721587 
21700 0.000714575 
21750 0.000707648 
21800 0.000700807 
21850 0.00069405 
21900 0.000687375 
21950 0.00068078 
22000 0.000674266 
22050 0.000667829 
22100 0.00066147 
22150 0.000655188 
22200 0.000648981 
22250 0.000642847 
22300 0.000636787 
22350 0.000630799 
22400 0.000624881 
22450 0.000619033 
22500 0.000613255 
22550 0.000607544 
22600 0.0006019 
22650 0.000596322 
22700 0.00059081 
22750 0.000585361 
22800 0.000579975 
22850 0.000574652 
22900 0.000569391 
22950 0.00056419 
23000 0.000559049 
23050 0.000553967 
23100 0.000548943 
23150 0.000543976 
23200 0.000539066 
23250 0.000534212 
23300 0.000529414 
23350 0.00052467 
23400 0.000519979 
23450 0.000515342 
23500 0.000510756 
23550 0.000506221 
23600 0.000501738 
23650 0.000497305 
23700 0.000492921 
23750 0.000488586 
23800 0.000484299 
23850 0.000480059 
23900 0.000475866 
23950 0.000471719 
24000 0.000467617 
24050 0.000463559 
24100 0.000459546 
24150 0.000455576 
24200 0.00045165 
24250 0.000447766 
24300 0.000443924 
24350 0.000440123 
24400 0.000436364 
24450 0.000432646 
24500 0.000428967 
24550 0.000425328 
24600 0.000421728 
24650 0.000418166 
24700 0.000414641 
24750 0.000411154 
24800 0.000407705 
24850 0.000404292 
24900 0.000400915 
24950 0.000397573 
25000 0.000394267 
25050 0.000390995 
25100 0.000387757 
25150 0.000384552 
25200 0.000381382 
25250 0.000378244 
25300 0.000375138 
25350 0.000372064 
25400 0.000369022 
25450 0.000366012 
25500 0.000363032 
25550 0.000360083 
25600 0.000357163 
25650 0.000354274 
25700 0.000351414 
25750 0.000348583 
25800 0.00034578 
25850 0.000343006 
25900 0.00034026 
25950 0.000337541 
26000 0.00033485 
26050 0.000332186 
26100 0.000329548 
26150 0.000326937 
26200 0.000324351 
26250 0.000321792 
26300 0.000319257 
26350 0.000316748 
26400 0.000314264 
26450 0.000311804 
26500 0.000309369 
26550 0.000306957 
26600 0.00030457 
26650 0.000302205 
26700 0.000299864 
26750 0.000297545 
26800 0.000295249 
26850 0.000292975 
26900 0.000290723 
26950 0.000288493 
27000 0.000286284 
27050 0.000284097 
27100 0.00028193 
27150 0.000279785 
27200 0.000277659 
27250 0.000275554 
27300 0.00027347 
27350 0.000271405 
27400 0.000269359 
27450 0.000267333 
27500 0.000265326 
27550 0.000263338 
27600 0.000261368 
27650 0.000259417 
27700 0.000257485 
27750 0.000255571 
27800 0.000253674 
27850 0.000251796 
27900 0.000249934 
27950 0.000248091 
28000 0.000246264 
28050 0.000244454 
28100 0.00024266 
28150 0.000240884 
28200 0.000239123 
28250 0.000237379 
28300 0.000235651 
28350 0.000233938 
28400 0.000232241 
28450 0.00023056 
28500 0.000228894 
28550 0.000227243 
28600 0.000225607 
28650 0.000223985 
28700 0.000222379 
28750 0.000220787 
28800 0.000219209 
28850 0.000217645 
28900 0.000216095 
28950 0.000214559 
29000 0.000213037 
29050 0.000211528 
29100 0.000210034 
29150 0.000208553 
29200 0.000207086 
29250 0.000205631 
29300 0.000204189 
29350 0.00020276 
29400 0.000201344 
29450 0.000199939 
29500 0.000198547 
29550 0.000197166 
29600 0.000195797 
29650 0.000194439 
29700 0.000193093 
29750 0.000191758 
29800 0.000190436 
29850 0.000189124 
29900 0.000187824 
29950 0.000186535 
30000 0.000185257 
30050 0.000184016 
30100 0.000182784 
30150 0.000181563 
30200 0.000180353 
30250 0.000179153 
30300 0.000177962 
30350 0.000176782 
30400 0.000175612 
30450 0.000174427 
30500 0.000173253 
30550 0.000172089 
30600 0.000170934 
30650 0.00016979 
30700 0.000168654 
30750 0.000167529 
30800 0.000166412 
30850 0.000165306 
30900 0.000164208 
30950 0.00016312 
31000 0.000162041 
31050 0.000160971 
31100 0.000159909 
31150 0.000158856 
31200 0.000157812 
31250 0.000156777 
31300 0.000155749 
31350 0.000154731 
31400 0.00015372 
31450 0.000152718 
31500 0.000151724 
31550 0.000150738 
31600 0.000149761 
31650 0.000148791 
31700 0.00014783 
31750 0.000146876 
31800 0.000145929 
31850 0.000144991 
31900 0.00014406 
31950 0.000143137 
32000 0.000142221 
32050 0.000141312 
32100 0.000140411 
32150 0.000139517 
32200 0.00013863 
32250 0.00013775 
32300 0.000136877 
32350 0.000136011 
32400 0.000135152 
32450 0.0001343 
32500 0.000133454 
32550 0.000132615 
32600 0.000131782 
32650 0.000130956 
32700 0.000130137 
32750 0.000129324 
32800 0.000128517 
32850 0.000127717 
32900 0.000126923 
32950 0.000126135 
33000 0.000125353 
33050 0.000124578 
33100 0.000123808 
33150 0.000123045 
33200 0.000122287 
33250 0.000121535 
33300 0.000120789 
33350 0.000120049 
33400 0.000119314 
33450 0.000118585 
33500 0.000117862 
33550 0.000117144 
33600 0.000116432 
33650 0.000115725 
33700 0.000115023 
33750 0.000114327 
33800 0.000113636 
33850 0.00011295 
33900 0.00011227 
33950 0.000111594 
34000 0.000110924 
34050 0.000110259 
34100 0.000109599 
34150 0.000108943 
34200 0.000108293 
34250 0.000107647 
34300 0.000107007 
34350 0.000106371 
34400 0.000105739 
34450 0.000105113 
34500 0.000104491 
34550 0.000103874 
34600 0.000103261 
34650 0.000102653 
34700 0.00010205 
34750 0.000101451 
34800 0.000100856 
34850 0.000100266 
34900 9.96797E-005 
34950 9.9098E-005 
35000 9.85206E-005 
35050 9.79473E-005 
35100 9.73783E-005 
35150 9.68133E-005 
35200 9.62525E-005 
35250 9.56958E-005 
35300 9.51431E-005 
35350 9.45943E-005 
35400 9.40496E-005 
35450 9.35087E-005 
35500 9.29718E-005 
35550 9.24387E-005 
35600 9.19095E-005 
35650 9.1384E-005 
35700 9.08623E-005 
35750 9.03444E-005 
35800 8.98301E-005 
35850 8.93195E-005 
35900 8.88125E-005 
35950 8.83091E-005 
36000 8.78093E-005 
36050 8.73131E-005 
36100 8.68203E-005 
36150 8.63311E-005 
36200 8.58453E-005 
36250 8.53629E-005 
36300 8.48839E-005 
36350 8.44083E-005 
36400 8.3936E-005 
36450 8.3467E-005 
36500 8.30013E-005 
36550 8.25389E-005 
36600 8.20798E-005 
36650 8.16238E-005 
36700 8.1171E-005 
36750 8.07214E-005 
36800 8.02748E-005 
36850 7.98314E-005 
36900 7.9391E-005 
36950 7.89537E-005 
37000 7.85194E-005 
37050 7.80882E-005 
37100 7.76599E-005 
37150 7.72346E-005 
37200 7.68122E-005 
37250 7.63927E-005 
37300 7.59761E-005 
37350 7.55623E-005 
37400 7.51513E-005 
37450 7.47431E-005 
37500 7.43378E-005 
37550 7.3935E-005 
37600 7.3535E-005 
37650 7.31377E-005 
37700 7.27431E-005 
37750 7.23511E-005 
37800 7.19618E-005 
37850 7.15751E-005 
37900 7.1191E-005 
37950 7.08095E-005 
38000 7.04306E-005 
38050 7.00542E-005 
38100 6.96804E-005 
38150 6.93091E-005 
38200 6.89403E-005 
38250 6.8574E-005 
38300 6.821E-005 
38350 6.78485E-005 
38400 6.74894E-005 
38450 6.71327E-005 
38500 6.67783E-005 
38550 6.64263E-005 
38600 6.60766E-005 
38650 6.57292E-005 
38700 6.5384E-005 
38750 6.50412E-005 
38800 6.47006E-005 
38850 6.43622E-005 
38900 6.40261E-005 
38950 6.36921E-005 
39000 6.33603E-005 
39050 6.30307E-005 
39100 6.27033E-005 
39150 6.23779E-005 
39200 6.20547E-005 
39250 6.17336E-005 
39300 6.14145E-005 
39350 6.10975E-005 
39400 6.07826E-005 
39450 6.04697E-005 
39500 6.01588E-005 
39550 5.98499E-005 
39600 5.9543E-005 
39650 5.92381E-005 
39700 5.89351E-005 
39750 5.86341E-005 
39800 5.83349E-005 
39850 5.80377E-005 
39900 5.77424E-005 
39950 5.7449E-005 
40000 5.71574E-005 
40050 5.68678E-005 
40100 5.658E-005 
40150 5.6294E-005 
40200 5.60098E-005 
40250 5.57275E-005 
40300 5.54469E-005 
40350 5.51681E-005 
40400 5.4891E-005 
40450 5.46157E-005 
40500 5.43421E-005 
40550 5.40702E-005 
40600 5.38E-005 
40650 5.35315E-005 
40700 5.32647E-005 
40750 5.29996E-005 
40800 5.27361E-005 
40850 5.24742E-005 
40900 5.2214E-005 
40950 5.19554E-005 
41000 5.16984E-005 
41050 5.14429E-005 
41100 5.11891E-005 
41150 5.09368E-005 
41200 5.06861E-005 
41250 5.04369E-005 
41300 5.01893E-005 
41350 4.99432E-005 
41400 4.96985E-005 
41450 4.94554E-005 
41500 4.92138E-005 
41550 4.89737E-005 
41600 4.8735E-005 
41650 4.84978E-005 
41700 4.8262E-005 
41750 4.80276E-005 
41800 4.77947E-005 
41850 4.75632E-005 
41900 4.73331E-005 
41950 4.71043E-005 
42000 4.68769E-005 
42050 4.66509E-005 
42100 4.64262E-005 
42150 4.62029E-005 
42200 4.59809E-005 
42250 4.57602E-005 
42300 4.55409E-005 
42350 4.5323E-005 
42400 4.51064E-005 
42450 4.4891E-005 
42500 4.4677E-005 
42550 4.44642E-005 
42600 4.42527E-005 
42650 4.40425E-005 
42700 4.38335E-005 
42750 4.36258E-005 
42800 4.34193E-005 
42850 4.3214E-005 
42900 4.30099E-005 
42950 4.2807E-005 
43000 4.26054E-005 
43050 4.2405E-005 
43100 4.22057E-005 
43150 4.20077E-005 
43200 4.18108E-005 
43250 4.1615E-005 
43300 4.14204E-005 
43350 4.1227E-005 
43400 4.10347E-005 
43450 4.08435E-005 
43500 4.06534E-005 
43550 4.04644E-005 
43600 4.02765E-005 
43650 4.00897E-005 
43700 3.9904E-005 
43750 3.97194E-005 
43800 3.95358E-005 
43850 3.93533E-005 
43900 3.91718E-005 
43950 3.89914E-005 
44000 3.8812E-005 
44050 3.86337E-005 
44100 3.84563E-005 
44150 3.828E-005 
44200 3.81047E-005 
44250 3.79304E-005 
44300 3.77571E-005 
44350 3.75848E-005 
44400 3.74135E-005 
44450 3.72431E-005 
44500 3.70738E-005 
44550 3.69053E-005 
44600 3.67379E-005 
44650 3.65714E-005 
44700 3.64058E-005 
44750 3.62412E-005 
44800 3.60775E-005 
44850 3.59147E-005 
44900 3.57528E-005 
44950 3.55919E-005 
45000 3.54319E-005 
45050 3.52727E-005 
45100 3.51145E-005 
45150 3.49571E-005 
45200 3.48006E-005 
45250 3.46451E-005 
45300 3.44903E-005 
45350 3.43365E-005 
45400 3.41835E-005 
45450 3.40313E-005 
45500 3.388E-005 
45550 3.37296E-005 
45600 3.35799E-005 
45650 3.34312E-005 
45700 3.32832E-005 
45750 3.3136E-005 
45800 3.29897E-005 
45850 3.28442E-005 
45900 3.26995E-005 
45950 3.25555E-005 
46000 3.24124E-005 
46050 3.22701E-005 
46100 3.21285E-005 
46150 3.19877E-005 
46200 3.18477E-005 
46250 3.17085E-005 
46300 3.157E-005 
46350 3.14323E-005 
46400 3.12953E-005 
46450 3.11591E-005 
46500 3.10237E-005 
46550 3.0889E-005 
46600 3.0755E-005 
46650 3.06217E-005 
46700 3.04892E-005 
46750 3.03574E-005 
46800 3.02263E-005 
46850 3.0096E-005 
46900 2.99663E-005 
46950 2.98373E-005 
47000 2.9709E-005 
47050 2.95814E-005 
47100 2.94545E-005 
47150 2.93282E-005 
47200 2.92026E-005 
47250 2.90777E-005 
47300 2.89534E-005 
47350 2.88298E-005 
47400 2.87069E-005 
47450 2.85846E-005 
47500 2.8463E-005 
47550 2.83421E-005 
47600 2.82217E-005 
47650 2.8102E-005 
47700 2.7983E-005 
47750 2.78646E-005 
47800 2.77468E-005 
47850 2.76296E-005 
47900 2.7513E-005 
47950 2.73971E-005 
48000 2.72818E-005 
48050 2.71671E-005 
48100 2.7053E-005 
48150 2.69395E-005 
48200 2.68266E-005 
48250 2.67143E-005 
48300 2.66026E-005 
48350 2.64915E-005 
48400 2.6381E-005 
48450 2.6271E-005 
48500 2.61616E-005 
48550 2.60528E-005 
48600 2.59445E-005 
48650 2.58368E-005 
48700 2.57297E-005 
48750 2.56231E-005 
48800 2.55171E-005 
48850 2.54116E-005 
48900 2.53067E-005 
48950 2.52023E-005 
49000 2.50984E-005 
49050 2.49951E-005 
49100 2.48923E-005 
49150 2.479E-005 
49200 2.46882E-005 
49250 2.4587E-005 
49300 2.44863E-005 
49350 2.4386E-005 
49400 2.42864E-005 
49450 2.41872E-005 
49500 2.40885E-005 
49550 2.39903E-005 
49600 2.38927E-005 
49650 2.37956E-005 
49700 2.36989E-005 
49750 2.36028E-005 
49800 2.35071E-005 
49850 2.34119E-005 
49900 2.33172E-005 
49950 2.3223E-005 
50000 2.31292E-005 
50050 2.3036E-005 
50100 2.29431E-005 
50150 2.28508E-005 
50200 2.27589E-005 
50250 2.26675E-005 
50300 2.25766E-005 
50350 2.24861E-005 
50400 2.2396E-005 
50450 2.23064E-005 
50500 2.22173E-005 
50550 2.21286E-005 
50600 2.20403E-005 
50650 2.19525E-005 
50700 2.18652E-005 
50750 2.17782E-005 
50800 2.16917E-005 
50850 2.16056E-005 
50900 2.152E-005 
50950 2.14347E-005 
51000 2.13499E-005 
51050 2.12656E-005 
51100 2.11816E-005 
51150 2.10981E-005 
51200 2.1015E-005 
51250 2.09323E-005 
51300 2.085E-005 
51350 2.07681E-005 
51400 2.06866E-005 
51450 2.06056E-005 
51500 2.05249E-005 
51550 2.04445E-005 
51600 2.03646E-005 
51650 2.02851E-005 
51700 2.02059E-005 
51750 2.01271E-005 
51800 2.00488E-005 
51850 1.99708E-005 
51900 1.98931E-005 
51950 1.98159E-005 
52000 1.9739E-005 
52050 1.96625E-005 
52100 1.95864E-005 
52150 1.95106E-005 
52200 1.94352E-005 
52250 1.93602E-005 
52300 1.92856E-005 
52350 1.92113E-005 
52400 1.91373E-005 
52450 1.90637E-005 
52500 1.89905E-005 
52550 1.89176E-005 
52600 1.88451E-005 
52650 1.87729E-005 
52700 1.8701E-005 
52750 1.86295E-005 
52800 1.85584E-005 
52850 1.84876E-005 
52900 1.84171E-005 
52950 1.83469E-005 
53000 1.82771E-005 
53050 1.82077E-005 
53100 1.81385E-005 
53150 1.80697E-005 
53200 1.80012E-005 
53250 1.7933E-005 
53300 1.78652E-005 
53350 1.77977E-005 
53400 1.77305E-005 
53450 1.76636E-005 
53500 1.7597E-005 
53550 1.75308E-005 
53600 1.74649E-005 
53650 1.73992E-005 
53700 1.73339E-005 
53750 1.7269E-005 
53800 1.72043E-005 
53850 1.71399E-005 
53900 1.70758E-005 
53950 1.7012E-005 
54000 1.69485E-005 
54050 1.68853E-005 
54100 1.68224E-005 
54150 1.67597E-005 
54200 1.66974E-005 
54250 1.66354E-005 
54300 1.65736E-005 
54350 1.65121E-005 
54400 1.64509E-005 
54450 1.639E-005 
54500 1.63294E-005 
54550 1.62691E-005 
54600 1.6209E-005 
54650 1.61492E-005 
54700 1.60898E-005 
54750 1.60306E-005 
54800 1.59717E-005 
54850 1.59131E-005 
54900 1.58545E-005 
54950 1.57964E-005 
55000 1.57386E-005 
55050 1.5681E-005 
55100 1.56236E-005 
55150 1.55665E-005 
55200 1.55096E-005 
55250 1.54531E-005 
55300 1.53967E-005 
55350 1.53407E-005 
55400 1.5285E-005 
55450 1.52295E-005 
55500 1.51743E-005 
55550 1.51192E-005 
55600 1.50644E-005 
55650 1.50099E-005 
55700 1.49556E-005 
55750 1.49015E-005 
55800 1.48477E-005 
55850 1.47941E-005 
55900 1.47408E-005 
55950 1.46877E-005 
56000 1.46348E-005 
56050 1.45822E-005 
56100 1.45299E-005 
56150 1.44777E-005 
56200 1.44259E-005 
56250 1.43742E-005 
56300 1.43228E-005 
56350 1.42715E-005 
56400 1.42206E-005 
56450 1.41698E-005 
56500 1.41193E-005 
56550 1.4069E-005 
56600 1.40189E-005 
56650 1.39691E-005 
56700 1.39195E-005 
56750 1.38701E-005 
56800 1.38209E-005 
56850 1.37719E-005 
56900 1.37232E-005 
56950 1.36746E-005 
57000 1.36263E-005 
57050 1.35782E-005 
57100 1.35303E-005 
57150 1.34827E-005 
57200 1.34352E-005 
57250 1.33879E-005 
57300 1.33409E-005 
57350 1.3294E-005 
57400 1.32474E-005 
57450 1.3201E-005 
57500 1.31547E-005 
57550 1.31087E-005 
57600 1.30629E-005 
57650 1.30173E-005 
57700 1.29718E-005 
57750 1.29266E-005 
57800 1.28816E-005 
57850 1.28367E-005 
57900 1.27921E-005 
57950 1.27477E-005 
58000 1.27034E-005 
58050 1.26593E-005 
58100 1.26155E-005 
58150 1.25718E-005 
58200 1.25283E-005 
58250 1.2485E-005 
58300 1.24419E-005 
58350 1.2399E-005 
58400 1.23562E-005 
58450 1.23137E-005 
58500 1.22713E-005 
58550 1.22291E-005 
58600 1.21871E-005 
58650 1.21453E-005 
58700 1.21036E-005 
58750 1.20621E-005 
58800 1.20208E-005 
58850 1.19797E-005 
58900 1.19388E-005 
58950 1.1898E-005 
59000 1.18574E-005 
59050 1.1817E-005 
59100 1.17768E-005 
59150 1.17367E-005 
59200 1.16968E-005 
59250 1.1657E-005 
59300 1.16175E-005 
59350 1.15781E-005 
59400 1.15388E-005 
59450 1.14998E-005 
59500 1.14609E-005 
59550 1.14221E-005 
59600 1.13836E-005 
59650 1.13452E-005 
59700 1.13069E-005 
59750 1.12688E-005 
59800 1.12309E-005 
59850 1.11931E-005 
59900 1.11555E-005 
59950 1.11181E-005 
60000 1.10808E-005 
60050 1.10436E-005 
60100 1.10066E-005 
60150 1.09698E-005 
60200 1.09332E-005 
60250 1.08966E-005 
60300 1.08603E-005 
60350 1.08241E-005 
60400 1.0788E-005 
60450 1.07521E-005 
60500 1.07163E-005 
60550 1.06807E-005 
60600 1.06452E-005 
60650 1.06099E-005 
60700 1.05748E-005 
60750 1.05397E-005 
60800 1.05048E-005 
60850 1.04701E-005 
60900 1.04355E-005 
60950 1.04011E-005 
61000 1.03668E-005 
61050 1.03326E-005 
61100 1.02986E-005 
61150 1.02647E-005 
61200 1.0231E-005 
61250 1.01974E-005 
61300 1.01639E-005 
61350 1.01306E-005 
61400 1.00974E-005 
61450 1.00644E-005 
61500 1.00314E-005 
61550 9.99865E-006 
61600 9.96599E-006 
61650 9.93347E-006 
61700 9.90108E-006 
61750 9.86882E-006 
61800 9.8367E-006 
61850 9.8047E-006 
61900 9.77283E-006 
61950 9.7411E-006 
62000 9.70949E-006 
62050 9.67801E-006 
62100 9.64666E-006 
62150 9.61544E-006 
62200 9.58434E-006 
62250 9.55337E-006 
62300 9.52252E-006 
62350 9.4918E-006 
62400 9.46121E-006 
62450 9.43074E-006 
62500 9.40039E-006 
62550 9.37017E-006 
62600 9.34006E-006 
62650 9.31008E-006 
62700 9.28022E-006 
62750 9.25048E-006 
62800 9.22085E-006 
62850 9.19135E-006 
62900 9.16196E-006 
62950 9.13269E-006 
63000 9.10354E-006 
63050 9.0745E-006 
63100 9.04557E-006 
63150 9.01676E-006 
63200 8.98806E-006 
63250 8.95948E-006 
63300 8.93101E-006 
63350 8.90265E-006 
63400 8.87441E-006 
63450 8.84628E-006 
63500 8.81826E-006 
63550 8.79034E-006 
63600 8.76255E-006 
63650 8.73486E-006 
63700 8.70728E-006 
63750 8.67981E-006 
63800 8.65244E-006 
63850 8.62519E-006 
63900 8.59804E-006 
63950 8.571E-006 
64000 8.54407E-006 
64050 8.51724E-006 
64100 8.49053E-006 
64150 8.46392E-006 
64200 8.43741E-006 
64250 8.411E-006 
64300 8.3847E-006 
64350 8.3585E-006 
64400 8.33241E-006 
64450 8.30641E-006 
64500 8.28052E-006 
64550 8.25473E-006 
64600 8.22904E-006 
64650 8.20345E-006 
64700 8.17795E-006 
64750 8.15256E-006 
64800 8.12727E-006 
64850 8.10207E-006 
64900 8.07697E-006 
64950 8.05197E-006 
65000 8.02707E-006 
65050 8.00226E-006 
65100 7.97754E-006 
65150 7.95292E-006 
65200 7.9284E-006 
65250 7.90397E-006 
65300 7.87963E-006 
65350 7.85539E-006 
65400 7.83125E-006 
65450 7.80719E-006 
65500 7.78322E-006 
65550 7.75935E-006 
65600 7.73557E-006 
65650 7.71188E-006 
65700 7.68829E-006 
65750 7.66478E-006 
65800 7.64136E-006 
65850 7.61803E-006 
65900 7.59479E-006 
65950 7.57164E-006 
66000 7.54858E-006 
66050 7.52561E-006 
66100 7.50272E-006 
66150 7.47992E-006 
66200 7.45721E-006 
66250 7.43458E-006 
66300 7.41204E-006 
66350 7.38958E-006 
66400 7.36721E-006 
66450 7.34492E-006 
66500 7.32272E-006 
66550 7.3006E-006 
66600 7.27857E-006 
66650 7.25662E-006 
66700 7.23475E-006 
66750 7.21296E-006 
66800 7.19126E-006 
66850 7.16964E-006 
66900 7.14809E-006 
66950 7.12663E-006 
67000 7.10525E-006 
67050 7.08395E-006 
67100 7.06273E-006 
67150 7.04159E-006 
67200 7.02053E-006 
67250 6.99954E-006 
67300 6.97864E-006 
67350 6.95781E-006 
67400 6.93706E-006 
67450 6.91639E-006 
67500 6.89581E-006 
67550 6.8753E-006 
67600 6.85487E-006 
67650 6.83451E-006 
67700 6.81423E-006 
67750 6.79402E-006 
67800 6.77389E-006 
67850 6.75383E-006 
67900 6.73385E-006 
67950 6.71394E-006 
68000 6.6941E-006 
68050 6.67433E-006 
68100 6.65464E-006 
68150 6.63502E-006 
68200 6.61546E-006 
68250 6.59599E-006 
68300 6.57658E-006 
68350 6.55724E-006 
68400 6.53798E-006 
68450 6.51879E-006 
68500 6.49966E-006 
68550 6.48061E-006 
68600 6.46163E-006 
68650 6.44271E-006 
68700 6.42387E-006 
68750 6.40509E-006 
68800 6.38638E-006 
68850 6.36775E-006 
68900 6.34917E-006 
68950 6.33067E-006 
69000 6.31224E-006 
69050 6.29387E-006 
69100 6.27556E-006 
69150 6.25733E-006 
69200 6.23916E-006 
69250 6.22106E-006 
69300 6.20302E-006 
69350 6.18505E-006 
69400 6.16714E-006 
69450 6.1493E-006 
69500 6.13152E-006 
69550 6.11381E-006 
69600 6.09616E-006 
69650 6.07857E-006 
69700 6.06105E-006 
69750 6.04359E-006 
69800 6.02619E-006 
69850 6.00886E-006 
69900 5.99159E-006 
69950 5.97438E-006 
70000 5.95723E-006 
70050 5.94015E-006 
70100 5.92313E-006 
70150 5.90617E-006 
70200 5.88927E-006 
70250 5.87243E-006 
70300 5.85565E-006 
70350 5.83894E-006 
70400 5.82228E-006 
70450 5.80568E-006 
70500 5.78914E-006 
70550 5.77266E-006 
70600 5.75623E-006 
70650 5.73987E-006 
70700 5.72356E-006 
70750 5.70731E-006 
70800 5.69112E-006 
70850 5.67499E-006 
70900 5.65891E-006 
70950 5.6429E-006 
71000 5.62693E-006 
71050 5.61103E-006 
71100 5.59518E-006 
71150 5.57938E-006 
71200 5.56365E-006 
71250 5.54796E-006 
71300 5.53234E-006 
71350 5.51676E-006 
71400 5.50125E-006 
71450 5.48578E-006 
71500 5.47038E-006 
71550 5.45502E-006 
71600 5.43972E-006 
71650 5.42447E-006 
71700 5.40928E-006 
71750 5.39414E-006 
71800 5.37905E-006 
71850 5.36402E-006 
71900 5.34904E-006 
71950 5.33411E-006 
72000 5.31923E-006 
72050 5.3044E-006 
72100 5.28962E-006 
72150 5.2749E-006 
72200 5.26023E-006 
72250 5.2456E-006 
72300 5.23103E-006 
72350 5.21651E-006 
72400 5.20204E-006 
72450 5.18762E-006 
72500 5.17325E-006 
72550 5.15893E-006 
72600 5.14466E-006 
72650 5.13044E-006 
72700 5.11627E-006 
72750 5.10214E-006 
72800 5.08807E-006 
72850 5.07404E-006 
72900 5.06006E-006 
72950 5.04613E-006 
73000 5.03225E-006 
73050 5.01841E-006 
73100 5.00462E-006 
73150 4.99088E-006 
73200 4.97719E-006 
73250 4.96354E-006 
73300 4.94994E-006 
73350 4.93639E-006 
73400 4.92288E-006 
73450 4.90942E-006 
73500 4.89601E-006 
73550 4.88264E-006 
73600 4.86932E-006 
73650 4.85605E-006 
73700 4.84282E-006 
73750 4.82964E-006 
73800 4.8165E-006 
73850 4.80341E-006 
73900 4.79036E-006 
73950 4.77736E-006 
74000 4.7644E-006 
74050 4.75148E-006 
74100 4.73861E-006 
74150 4.72578E-006 
74200 4.713E-006 
74250 4.70025E-006 
74300 4.68755E-006 
74350 4.67489E-006 
74400 4.66227E-006 
74450 4.64969E-006 
74500 4.63716E-006 
74550 4.62467E-006 
74600 4.61222E-006 
74650 4.59982E-006 
74700 4.58745E-006 
74750 4.57513E-006 
74800 4.56285E-006 
74850 4.55061E-006 
74900 4.53841E-006 
74950 4.52625E-006 
75000 4.51413E-006 
75050 4.50206E-006 
75100 4.49002E-006 
75150 4.47803E-006 
75200 4.46608E-006 
75250 4.45416E-006 
75300 4.44229E-006 
75350 4.43045E-006 
75400 4.41866E-006 
75450 4.4069E-006 
75500 4.39518E-006 
75550 4.3835E-006 
75600 4.37186E-006 
75650 4.36026E-006 
75700 4.3487E-006 
75750 4.33718E-006 
75800 4.32569E-006 
75850 4.31424E-006 
75900 4.30283E-006 
75950 4.29146E-006 
76000 4.28012E-006 
76050 4.26883E-006 
76100 4.25757E-006 
76150 4.24634E-006 
76200 4.23516E-006 
76250 4.22401E-006 
76300 4.2129E-006 
76350 4.20182E-006 
76400 4.19078E-006 
76450 4.17978E-006 
76500 4.16881E-006 
76550 4.15788E-006 
76600 4.14699E-006 
76650 4.13613E-006 
76700 4.1253E-006 
76750 4.11451E-006 
76800 4.10376E-006 
76850 4.09304E-006 
76900 4.08236E-006 
76950 4.07171E-006 
77000 4.0611E-006 
77050 4.05052E-006 
77100 4.03997E-006 
77150 4.02946E-006 
77200 4.01899E-006 
77250 4.00854E-006 
77300 3.99814E-006 
77350 3.98776E-006 
77400 3.97742E-006 
77450 3.96711E-006 
77500 3.95684E-006 
77550 3.9466E-006 
77600 3.93639E-006 
77650 3.92621E-006 
77700 3.91607E-006 
77750 3.90596E-006 
77800 3.89589E-006 
77850 3.88584E-006 
77900 3.87583E-006 
77950 3.86585E-006 
78000 3.8559E-006 
78050 3.84599E-006 
78100 3.8361E-006 
78150 3.82625E-006 
78200 3.81643E-006 
78250 3.80664E-006 
78300 3.79689E-006 
78350 3.78716E-006 
78400 3.77746E-006 
78450 3.7678E-006 
78500 3.75817E-006 
78550 3.74857E-006 
78600 3.73899E-006 
78650 3.72945E-006 
78700 3.71994E-006 
78750 3.71046E-006 
78800 3.701E-006 
78850 3.69158E-006 
78900 3.68219E-006 
78950 3.67283E-006 
79000 3.66349E-006 
79050 3.65419E-006 
79100 3.64492E-006 
79150 3.63567E-006 
79200 3.62646E-006 
79250 3.61727E-006 
79300 3.60812E-006 
79350 3.59899E-006 
79400 3.5899E-006 
79450 3.58083E-006 
79500 3.57179E-006 
79550 3.56278E-006 
79600 3.5538E-006 
79650 3.54485E-006 
79700 3.53593E-006 
79750 3.52703E-006 
79800 3.51816E-006 
79850 3.50932E-006 
79900 3.50051E-006 
79950 3.49172E-006 
80000 3.48297E-006 
80050 3.47424E-006 
80100 3.46553E-006 
80150 3.45686E-006 
80200 3.44821E-006 
80250 3.43959E-006 
80300 3.431E-006 
80350 3.42243E-006 
80400 3.41389E-006 
80450 3.40538E-006 
80500 3.39689E-006 
80550 3.38843E-006 
80600 3.37999E-006 
80650 3.37159E-006 
80700 3.3632E-006 
80750 3.35485E-006 
80800 3.34652E-006 
80850 3.33821E-006 
80900 3.32993E-006 
80950 3.32168E-006 
81000 3.31345E-006 
81050 3.30525E-006 
81100 3.29708E-006 
81150 3.28893E-006 
81200 3.2808E-006 
81250 3.2727E-006 
81300 3.26462E-006 
81350 3.25657E-006 
81400 3.24855E-006 
81450 3.24055E-006 
81500 3.23257E-006 
81550 3.22462E-006 
81600 3.21669E-006 
81650 3.20879E-006 
81700 3.20091E-006 
81750 3.19305E-006 
81800 3.18522E-006 
81850 3.17741E-006 
81900 3.16963E-006 
81950 3.16187E-006 
82000 3.15414E-006 
82050 3.14642E-006 
82100 3.13874E-006 
82150 3.13107E-006 
82200 3.12343E-006 
82250 3.11581E-006 
82300 3.10822E-006 
82350 3.10065E-006 
82400 3.0931E-006 
82450 3.08557E-006 
82500 3.07807E-006 
82550 3.07059E-006 
82600 3.06313E-006 
82650 3.0557E-006 
82700 3.04829E-006 
82750 3.0409E-006 
82800 3.03353E-006 
82850 3.02619E-006 
82900 3.01886E-006 
82950 3.01156E-006 
83000 3.00428E-006 
83050 2.99703E-006 
83100 2.98979E-006 
83150 2.98258E-006 
83200 2.97539E-006 
83250 2.96821E-006 
83300 2.96107E-006 
83350 2.95394E-006 
83400 2.94683E-006 
83450 2.93975E-006 
83500 2.93268E-006 
83550 2.92564E-006 
83600 2.91862E-006 
83650 2.91162E-006 
83700 2.90464E-006 
83750 2.89768E-006 
83800 2.89075E-006 
83850 2.88383E-006 
83900 2.87693E-006 
83950 2.87006E-006 
84000 2.8632E-006 
84050 2.85637E-006 
84100 2.84956E-006 
84150 2.84277E-006 
84200 2.836E-006 
84250 2.82925E-006 
84300 2.82252E-006 
84350 2.8158E-006 
84400 2.80911E-006 
84450 2.80244E-006 
84500 2.79579E-006 
84550 2.78916E-006 
84600 2.78255E-006 
84650 2.77596E-006 
84700 2.76938E-006 
84750 2.76283E-006 
84800 2.7563E-006 
84850 2.74978E-006 
84900 2.74328E-006 
84950 2.73681E-006 
85000 2.73035E-006 
85050 2.72391E-006 
85100 2.71749E-006 
85150 2.71109E-006 
85200 2.7047E-006 
85250 2.69834E-006 
85300 2.69199E-006 
85350 2.68567E-006 
85400 2.67936E-006 
85450 2.67307E-006 
85500 2.6668E-006 
85550 2.66054E-006 
85600 2.65431E-006 
85650 2.64809E-006 
85700 2.64189E-006 
85750 2.63571E-006 
85800 2.62955E-006 
85850 2.62341E-006 
85900 2.61728E-006 
85950 2.61117E-006 
86000 2.60508E-006 
86050 2.59901E-006 
86100 2.59295E-006 
86150 2.58692E-006 
86200 2.5809E-006 
86250 2.57489E-006 
86300 2.56891E-006 
86350 2.56294E-006 
86400 2.55699E-006 
86450 2.55106E-006 
86500 2.54514E-006 
86550 2.53925E-006 
86600 2.53336E-006 
86650 2.5275E-006 
86700 2.52166E-006 
86750 2.51583E-006 
86800 2.51001E-006 
86850 2.50422E-006 
86900 2.49844E-006 
86950 2.49268E-006 
87000 2.48693E-006 
87050 2.4812E-006 
87100 2.47549E-006 
87150 2.46979E-006 
87200 2.46411E-006 
87250 2.45845E-006 
87300 2.4528E-006 
87350 2.44717E-006 
87400 2.44155E-006 
87450 2.43596E-006 
87500 2.43037E-006 
87550 2.42481E-006 
87600 2.41925E-006 
87650 2.41372E-006 
87700 2.4082E-006 
87750 2.4027E-006 
87800 2.39721E-006 
87850 2.39174E-006 
87900 2.38628E-006 
87950 2.38084E-006 
88000 2.37541E-006 
88050 2.37E-006 
88100 2.36461E-006 
88150 2.35923E-006 
88200 2.35386E-006 
88250 2.34851E-006 
88300 2.34318E-006 
88350 2.33786E-006 
88400 2.33255E-006 
88450 2.32727E-006 
88500 2.32199E-006 
88550 2.31673E-006 
88600 2.31149E-006 
88650 2.30626E-006 
88700 2.30104E-006 
88750 2.29584E-006 
88800 2.29066E-006 
88850 2.28549E-006 
88900 2.28033E-006 
88950 2.27519E-006 
89000 2.27006E-006 
89050 2.26495E-006 
89100 2.25985E-006 
89150 2.25477E-006 
89200 2.2497E-006 
89250 2.24465E-006 
89300 2.23961E-006 
89350 2.23458E-006 
89400 2.22957E-006 
89450 2.22457E-006 
89500 2.21959E-006 
89550 2.21462E-006 
89600 2.20967E-006 
89650 2.20472E-006 
89700 2.1998E-006 
89750 2.19488E-006 
89800 2.18998E-006 
89850 2.1851E-006 
89900 2.18022E-006 
89950 2.17536E-006 
90000 2.17052E-006 
90050 2.16568E-006 
90100 2.16086E-006 
90150 2.15606E-006 
90200 2.15127E-006 
90250 2.14649E-006 
90300 2.14172E-006 
90350 2.13697E-006 
90400 2.13223E-006 
90450 2.1275E-006 
90500 2.12279E-006 
90550 2.11809E-006 
90600 2.1134E-006 
90650 2.10872E-006 
90700 2.10406E-006 
90750 2.09941E-006 
90800 2.09478E-006 
90850 2.09016E-006 
90900 2.08555E-006 
90950 2.08095E-006 
91000 2.07636E-006 
91050 2.07179E-006 
91100 2.06723E-006 
91150 2.06268E-006 
91200 2.05815E-006 
91250 2.05363E-006 
91300 2.04912E-006 
91350 2.04462E-006 
91400 2.04013E-006 
91450 2.03566E-006 
91500 2.0312E-006 
91550 2.02675E-006 
91600 2.02232E-006 
91650 2.01789E-006 
91700 2.01348E-006 
91750 2.00908E-006 
91800 2.00469E-006 
91850 2.00032E-006 
91900 1.99595E-006 
91950 1.9916E-006 
92000 1.98726E-006 
92050 1.98293E-006 
92100 1.97862E-006 
92150 1.97431E-006 
92200 1.97002E-006 
92250 1.96574E-006 
92300 1.96147E-006 
92350 1.95721E-006 
92400 1.95296E-006 
92450 1.94873E-006 
92500 1.9445E-006 
92550 1.94029E-006 
92600 1.93609E-006 
92650 1.9319E-006 
92700 1.92772E-006 
92750 1.92356E-006 
92800 1.9194E-006 
92850 1.91526E-006 
92900 1.91112E-006 
92950 1.907E-006 
93000 1.90289E-006 
93050 1.89879E-006 
93100 1.8947E-006 
93150 1.89062E-006 
93200 1.88656E-006 
93250 1.8825E-006 
93300 1.87846E-006 
93350 1.87442E-006 
93400 1.8704E-006 
93450 1.86639E-006 
93500 1.86239E-006 
93550 1.8584E-006 
93600 1.85442E-006 
93650 1.85045E-006 
93700 1.84649E-006 
93750 1.84254E-006 
93800 1.8386E-006 
93850 1.83468E-006 
93900 1.83076E-006 
93950 1.82685E-006 
94000 1.82296E-006 
94050 1.81907E-006 
94100 1.8152E-006 
94150 1.81133E-006 
94200 1.80748E-006 
94250 1.80364E-006 
94300 1.7998E-006 
94350 1.79598E-006 
94400 1.79216E-006 
94450 1.78836E-006 
94500 1.78457E-006 
94550 1.78078E-006 
94600 1.77701E-006 
94650 1.77325E-006 
94700 1.76949E-006 
94750 1.76575E-006 
94800 1.76202E-006 
94850 1.75829E-006 
94900 1.75458E-006 
94950 1.75088E-006 
95000 1.74718E-006 
95050 1.7435E-006 
95100 1.73982E-006 
95150 1.73616E-006 
95200 1.7325E-006 
95250 1.72885E-006 
95300 1.72522E-006 
95350 1.72159E-006 
95400 1.71797E-006 
95450 1.71437E-006 
95500 1.71077E-006 
95550 1.70718E-006 
95600 1.7036E-006 
95650 1.70003E-006 
95700 1.69647E-006 
95750 1.69292E-006 
95800 1.68937E-006 
95850 1.68584E-006 
95900 1.68232E-006 
95950 1.6788E-006 
96000 1.6753E-006 
96050 1.6718E-006 
96100 1.66831E-006 
96150 1.66483E-006 
96200 1.66137E-006 
96250 1.65791E-006 
96300 1.65445E-006 
96350 1.65101E-006 
96400 1.64758E-006 
96450 1.64416E-006 
96500 1.64074E-006 
96550 1.63733E-006 
96600 1.63394E-006 
96650 1.63055E-006 
96700 1.62717E-006 
96750 1.6238E-006 
96800 1.62044E-006 
96850 1.61709E-006 
96900 1.61374E-006 
96950 1.61041E-006 
97000 1.60708E-006 
97050 1.60376E-006 
97100 1.60045E-006 
97150 1.59715E-006 
97200 1.59386E-006 
97250 1.59057E-006 
97300 1.5873E-006 
97350 1.58403E-006 
97400 1.58077E-006 
97450 1.57752E-006 
97500 1.57428E-006 
97550 1.57104E-006 
97600 1.56782E-006 
97650 1.5646E-006 
97700 1.56139E-006 
97750 1.55819E-006 
97800 1.555E-006 
97850 1.55181E-006 
97900 1.54863E-006 
97950 1.54547E-006 
98000 1.54231E-006 
98050 1.53915E-006 
98100 1.53601E-006 
98150 1.53287E-006 
98200 1.52974E-006 
98250 1.52662E-006 
98300 1.52351E-006 
98350 1.52041E-006 
98400 1.51731E-006 
98450 1.51422E-006 
98500 1.51114E-006 
98550 1.50807E-006 
98600 1.505E-006 
98650 1.50194E-006 
98700 1.4989E-006 
98750 1.49585E-006 
98800 1.49282E-006 
98850 1.48979E-006 
98900 1.48677E-006 
98950 1.48376E-006 
99000 1.48076E-006 
99050 1.47776E-006 
99100 1.47477E-006 
99150 1.47179E-006 
99200 1.46882E-006 
99250 1.46585E-006 
99300 1.46289E-006 
99350 1.45994E-006 
99400 1.45699E-006 
99450 1.45406E-006 
99500 1.45113E-006 
99550 1.44821E-006 
99600 1.44529E-006 
99650 1.44239E-006 
99700 1.43949E-006 
99750 1.4366E-006 
99800 1.43371E-006 
99850 1.43084E-006 
99900 1.42797E-006 
99950 1.42511E-006 
100000 1.42225E-006 
