# DIAMOND LIGHT SOURCE
# Instrument: I20-XAS Date: Mon, 5 Aug 2013 16:14:12 BST
# Ring energy: 3.00092 GeV
# Initial ring current: 300.83517 mA
# Filling mode: Standby
# Wiggler gap selected: 20.00000 mm
#  
# Primary slits:  vertical gap= 0.12005 mm; horizontal gap= 0.80017 mm; vertical offset= 0.02498 mm; horizontal offset= 0.00002 mm
# Secondary slits:  vertical gap= 2.99900 mm; horizontal gap= 23.49900 mm; vertical offset= -0.00050 mm; horizontal offset= 0.25950 mm
# Experimental slits:  vertical gap= 1.50000 mm; horizontal gap= 4.99996 mm; vertical offset= 0.64000 mm; horizontal offset= 0.00008 mm
#  
# Optic Hutch Mirrors Coating: Rhodium
# Monochromator crystal cut: Si(111)
# Incident angle for Harmonic Rejection Mirrors: -7.92 mrad
# Harmonic rejection mirrors coating: Rhodium
# I0 Stanford sensitivity: 2 uA/V Offsets: 20 nA
# It Stanford sensitivity: 2 uA/V Offsets: 10 nA
# Iref Stanford sensitivity: 500 nA/V Offsets: 2 nA
# Atn5 (Xia) filters: Al 0.2 mm In Al 0.5 mm Out Al 1.0 mm Out Al 3.0 mm Out
# Sample stage: x: 0.00 mm y: 15.80 mm z: 4.00 mm rot: -0.00 deg roll: 0.00 deg pitch: 0.00 deg
#
# Ascii output file name: 'Cu_foil_34819_1.dat'
# Nexus output file: '/dls/i20/data/2013/cm5945-3/Cu_K_edge/nexus/34819_1.nxs'
# The XML files, ScanParameters, SampleParameters, DetectorParameters, OutputParameters
# are stored in the nexus file.
#
# Sample name: Pd foil
# Sample description: Pd foil from BM29 calibrated in athena
##
#
#
# Dark current intensity was collected over 1.00s. Average counts per second: I0 1047.00   It 416.00   Iref 235.00
# Dark current has been automatically removed from counts in main scan (I0,It,Iref)
#
# Energy	lnI0It 
24161.64	-2.72358
24166.506	-2.72345
24171.088	-2.72353
24175.385	-2.72376
24179.397	-2.72385
24183.124	-2.72415
24186.564	-2.72389
24189.719	-2.72401
24192.588	-2.72385
24195.171	-2.72402
24197.467	-2.7241
24199.477	-2.72419
24201.199	-2.72388
24202.779	-2.72371
24203.927	-2.72403
24204.789	-2.72408
24205.363	-2.72411
24205.651	-2.72421
24205.938	-2.7239
24206.225	-2.72433
24206.512	-2.72405
24206.943	-2.72394
24207.231	-2.72406
24207.518	-2.72403
24207.805	-2.72444
24208.092	-2.72412
24208.38	-2.72412
24208.667	-2.72428
24208.954	-2.72391
24209.242	-2.72417
24209.529	-2.72419
24209.816	-2.72407
24210.104	-2.72416
24210.535	-2.72407
24210.822	-2.72411
24211.109	-2.72388
24211.397	-2.72411
24211.684	-2.72386
24211.972	-2.72424
24212.259	-2.72419
24212.546	-2.72405
24212.834	-2.72421
24213.121	-2.72423
24213.409	-2.72394
24213.84	-2.72414
24214.127	-2.72394
24214.415	-2.72401
24214.702	-2.72432
24214.989	-2.72406
24215.277	-2.72423
24215.564	-2.72415
24215.852	-2.72383
24216.139	-2.72415
24216.427	-2.72432
24216.714	-2.72406
24217.002	-2.72404
24217.433	-2.72393
24217.721	-2.72394
24218.008	-2.72438
24218.296	-2.72418
24218.583	-2.7241
24218.871	-2.72388
24219.158	-2.72425
24219.446	-2.72394
24219.733	-2.72417
24220.021	-2.72411
24220.309	-2.7239
24220.74	-2.72409
24221.028	-2.72402
24221.315	-2.72418
24221.603	-2.72418
24221.89	-2.72429
24222.178	-2.72395
24222.466	-2.72386
24222.753	-2.72413
24223.041	-2.72392
24223.329	-2.72409
24223.616	-2.72412
24223.904	-2.72401
24224.336	-2.72373
24224.623	-2.72425
24224.911	-2.72376
24225.199	-2.72385
24225.486	-2.72388
24225.774	-2.72396
24226.062	-2.72389
24226.35	-2.7238
24226.637	-2.72393
24226.925	-2.72376
24227.213	-2.72368
24227.644	-2.72405
24227.932	-2.72384
24228.22	-2.72362
24228.508	-2.72411
24228.796	-2.724
24229.083	-2.72392
24229.371	-2.72397
24229.659	-2.72372
24229.947	-2.7238
24230.234	-2.72392
24230.522	-2.72385
24230.81	-2.72379
24231.242	-2.72382
24231.53	-2.7241
24231.818	-2.72369
24232.105	-2.72378
24232.393	-2.72384
24232.681	-2.7239
24232.969	-2.72372
24233.257	-2.72383
24233.545	-2.72365
24233.833	-2.72379
24234.121	-2.72393
24234.409	-2.72363
24234.84	-2.72365
24235.128	-2.72378
24235.416	-2.72344
24235.704	-2.72347
24235.992	-2.72356
24236.28	-2.72371
24236.568	-2.72358
24236.856	-2.72369
24237.144	-2.72369
24237.432	-2.72347
24237.72	-2.72373
24238.008	-2.72357
24238.44	-2.72355
24238.728	-2.72361
24239.016	-2.7235
24239.304	-2.72337
24239.592	-2.72341
24239.88	-2.72333
24240.168	-2.72318
24240.457	-2.72353
24240.745	-2.72341
24241.033	-2.72315
24241.321	-2.72361
24241.609	-2.72325
24242.041	-2.72329
24242.329	-2.72332
24242.617	-2.72335
24242.905	-2.72348
24243.193	-2.7233
24243.482	-2.72326
24243.77	-2.72328
24244.058	-2.72312
24244.346	-2.72343
24244.634	-2.72314
24244.922	-2.7234
24245.21	-2.72303
24245.643	-2.72331
24245.931	-2.7234
24246.219	-2.72324
24246.507	-2.72295
24246.796	-2.72305
24247.084	-2.72302
24247.372	-2.72293
24247.66	-2.72311
24247.948	-2.72296
24248.237	-2.72286
24248.525	-2.72292
24248.813	-2.72274
24249.102	-2.72314
24249.534	-2.723
24249.822	-2.72295
24250.11	-2.72298
24250.399	-2.72286
24250.687	-2.7231
24250.975	-2.72296
24251.264	-2.72289
24251.552	-2.72264
24251.84	-2.72288
24252.129	-2.72259
24252.417	-2.7228
24252.706	-2.72265
24253.138	-2.72263
24253.426	-2.72281
24253.715	-2.72276
24254.003	-2.72271
24254.292	-2.72277
24254.58	-2.7226
24254.868	-2.7225
24255.157	-2.72255
24255.445	-2.72246
24255.734	-2.72254
24256.022	-2.72257
24256.31	-2.72251
24256.743	-2.72209
24257.032	-2.72232
24257.32	-2.72234
24257.609	-2.72234
24257.897	-2.72231
24258.185	-2.72209
24258.474	-2.72214
24258.762	-2.72224
24259.051	-2.72212
24259.339	-2.72224
24259.628	-2.72193
24259.917	-2.72223
24260.205	-2.72212
24260.638	-2.72176
24260.926	-2.7219
24261.215	-2.72193
24261.504	-2.72178
24261.792	-2.72149
24262.081	-2.72165
24262.369	-2.72174
24262.658	-2.72166
24262.946	-2.72175
24263.235	-2.72169
24263.524	-2.72163
24263.812	-2.72156
24264.245	-2.72169
24264.534	-2.72135
24264.823	-2.72163
24265.111	-2.72124
24265.4	-2.72139
24265.689	-2.72143
24265.977	-2.72117
24266.266	-2.72126
24266.555	-2.72104
24266.843	-2.72136
24267.132	-2.72113
24267.421	-2.7211
24267.709	-2.72113
24268.142	-2.72091
24268.431	-2.72102
24268.72	-2.72098
24269.009	-2.72079
24269.297	-2.72084
24269.586	-2.72084
24269.875	-2.72076
24270.164	-2.72095
24270.452	-2.72076
24270.741	-2.7206
24271.03	-2.72039
24271.319	-2.72072
24271.608	-2.72085
24272.041	-2.72051
24272.33	-2.72044
24272.618	-2.72012
24272.907	-2.72066
24273.196	-2.72007
24273.485	-2.72008
24273.774	-2.7201
24274.063	-2.72026
24274.352	-2.71996
24274.64	-2.72025
24274.929	-2.71958
24275.218	-2.7196
24275.507	-2.71976
24275.94	-2.71963
24276.229	-2.71949
24276.518	-2.71966
24276.807	-2.71977
24277.096	-2.7195
24277.385	-2.71926
24277.674	-2.71972
24277.963	-2.7194
24278.252	-2.71952
24278.541	-2.71931
24278.83	-2.71934
24279.119	-2.71941
24279.408	-2.7192
24279.841	-2.71888
24280.13	-2.71913
24280.419	-2.71887
24280.708	-2.71889
24280.997	-2.71911
24281.287	-2.71881
24281.576	-2.71858
24281.865	-2.71868
24282.154	-2.7185
24282.443	-2.71855
24282.732	-2.71806
24283.021	-2.71837
24283.31	-2.71794
24283.744	-2.71811
24284.033	-2.71818
24284.322	-2.71806
24284.611	-2.71777
24284.9	-2.71781
24285.189	-2.71782
24285.478	-2.71764
24285.767	-2.71742
24286.057	-2.71748
24286.346	-2.71745
24286.635	-2.71738
24286.924	-2.71721
24287.213	-2.71708
24287.502	-2.71691
24287.936	-2.71692
24288.225	-2.71707
24288.515	-2.71678
24288.804	-2.71668
24289.093	-2.71666
24289.382	-2.71651
24289.672	-2.71639
24289.961	-2.71637
24290.25	-2.71609
24290.539	-2.71598
24290.829	-2.716
24291.118	-2.7158
24291.407	-2.71588
24291.841	-2.71578
24292.13	-2.71568
24292.42	-2.71546
24292.709	-2.7153
24292.998	-2.71545
24293.288	-2.715
24293.577	-2.71491
24293.866	-2.71505
24294.156	-2.7149
24294.445	-2.715
24294.734	-2.71467
24295.024	-2.71476
24295.313	-2.71457
24295.602	-2.71446
24296.036	-2.71445
24296.326	-2.71407
24296.615	-2.71369
24296.905	-2.71373
24297.194	-2.7139
24297.483	-2.71367
24297.773	-2.71378
24298.062	-2.7135
24298.352	-2.71302
24298.641	-2.71292
24298.931	-2.71284
24299.22	-2.71307
24299.51	-2.71287
24299.944	-2.71251
24300.233	-2.71218
24300.523	-2.71207
24300.812	-2.71217
24301.102	-2.71216
24301.391	-2.71157
24301.681	-2.71182
24301.97	-2.71165
24302.26	-2.71139
24302.549	-2.71118
24302.839	-2.71103
24303.129	-2.71076
24303.418	-2.71063
24303.708	-2.71067
24304.142	-2.71013
24304.432	-2.70999
24304.721	-2.71011
24305.011	-2.70982
24305.3	-2.70943
24305.59	-2.70942
24305.88	-2.7092
24306.169	-2.70909
24306.459	-2.70866
24306.749	-2.70891
24307.038	-2.70856
24307.328	-2.70793
24307.618	-2.70785
24307.907	-2.70792
24308.342	-2.70744
24308.631	-2.70718
24308.921	-2.70714
24309.211	-2.70715
24309.501	-2.70651
24309.79	-2.70636
24310.08	-2.70623
24310.37	-2.70584
24310.659	-2.70585
24310.949	-2.70554
24311.239	-2.70524
24311.529	-2.70485
24311.818	-2.70496
24312.108	-2.70444
24312.543	-2.70398
24312.833	-2.70386
24313.123	-2.70369
24313.412	-2.70322
24313.702	-2.70321
24313.992	-2.70268
24314.282	-2.70246
24314.572	-2.70188
24314.861	-2.70174
24315.151	-2.70139
24315.441	-2.70101
24315.731	-2.70102
24316.021	-2.70051
24316.311	-2.70013
24316.746	-2.69974
24317.035	-2.69923
24317.325	-2.69891
24317.615	-2.69839
24317.905	-2.69814
24318.195	-2.6981
24318.485	-2.69736
24318.775	-2.69736
24319.065	-2.697
24319.355	-2.69631
24319.645	-2.69619
24319.935	-2.69585
24320.225	-2.69518
24320.515	-2.69486
24320.805	-2.69413
24321.24	-2.69357
24321.53	-2.6931
24321.82	-2.69254
24322.11	-2.6923
24322.4	-2.69183
24322.835	-2.69116
24323.125	-2.6902
24323.415	-2.68978
24323.85	-2.68949
24324.14	-2.68873
24324.43	-2.6882
24324.865	-2.6869
24325.155	-2.68648
24325.59	-2.68577
24325.88	-2.68509
24326.316	-2.68396
24326.751	-2.68279
24327.041	-2.68233
24327.476	-2.68123
24327.911	-2.68043
24328.201	-2.67948
24328.637	-2.67805
24329.072	-2.67713
24329.507	-2.67553
24329.942	-2.67395
24330.378	-2.67261
24330.813	-2.67155
24331.248	-2.66961
24331.684	-2.66824
24332.119	-2.66619
24332.555	-2.66468
24332.99	-2.66278
24333.425	-2.66092
24333.861	-2.65861
24334.296	-2.65649
24334.877	-2.65332
24335.312	-2.65072
24335.748	-2.64797
24336.329	-2.64431
24336.764	-2.64131
24337.2	-2.63787
24337.78	-2.63309
24338.216	-2.62924
24338.797	-2.62388
24339.232	-2.61902
24339.813	-2.61292
24340.394	-2.60504
24340.83	-2.59866
24341.411	-2.58961
24341.992	-2.57923
24342.427	-2.5706
24343.008	-2.55743
24343.59	-2.54231
24344.171	-2.5248
24344.752	-2.50454
24345.188	-2.48658
24345.769	-2.46219
24346.35	-2.43346
24346.931	-2.40139
24347.512	-2.36442
24348.094	-2.32558
24348.82	-2.27398
24349.401	-2.23126
24349.983	-2.186
24350.564	-2.14355
24351.146	-2.09933
24351.872	-2.04612
24352.454	-2.00688
24353.035	-1.96594
24353.617	-1.92673
24354.344	-1.87789
24354.925	-1.83883
24355.652	-1.78969
24356.234	-1.75023
24356.961	-1.69494
24357.543	-1.65022
24358.27	-1.59062
24358.852	-1.54066
24359.579	-1.47743
24360.306	-1.4162
24360.888	-1.36611
24361.616	-1.31029
24362.343	-1.26084
24363.07	-1.21921
24363.798	-1.18719
24364.525	-1.16192
24365.108	-1.14769
24365.835	-1.13609
24366.563	-1.12914
24367.291	-1.12628
24368.018	-1.12781
24368.746	-1.13247
24369.619	-1.1426
24370.347	-1.15399
24371.075	-1.16847
24371.803	-1.18399
24372.531	-1.2013
24373.26	-1.21573
24374.133	-1.23038
24374.861	-1.24001
24375.59	-1.24698
24376.463	-1.25075
24377.192	-1.25032
24378.066	-1.24652
24378.794	-1.23985
24379.668	-1.22804
24380.397	-1.21592
24381.271	-1.19745
24382	-1.17895
24382.874	-1.15338
24383.748	-1.12515
24384.623	-1.0956
24385.352	-1.06996
24386.226	-1.03902
24387.101	-1.009
24387.976	-0.983985
24388.851	-0.962886
24389.58	-0.948783
24390.454	-0.93835
24391.329	-0.936337
24392.204	-0.943658
24393.08	-0.959409
24393.955	-0.984233
24394.976	-1.02111
24395.851	-1.05772
24396.727	-1.09585
24397.602	-1.13386
24398.477	-1.16682
24399.499	-1.20068
24400.375	-1.22306
24401.25	-1.24017
24402.126	-1.25062
24403.148	-1.25546
24404.024	-1.25445
24405.046	-1.24824
24405.922	-1.23993
24406.944	-1.22841
24407.82	-1.21656
24408.842	-1.20345
24409.718	-1.19318
24410.741	-1.1818
24411.763	-1.17261
24412.64	-1.16407
24413.663	-1.15807
24414.685	-1.15266
24415.708	-1.14851
24416.731	-1.14457
24417.608	-1.14123
24418.631	-1.1358
24419.654	-1.12816
24420.678	-1.11829
24421.701	-1.10428
24422.724	-1.08772
24423.748	-1.06978
24424.771	-1.04962
24425.941	-1.02799
24426.965	-1.00947
24427.989	-0.996168
24429.013	-0.987163
24430.037	-0.983322
24431.207	-0.985799
24432.232	-0.994367
24433.256	-1.00754
24434.427	-1.02601
24435.451	-1.04433
24436.622	-1.06665
24437.647	-1.08675
24438.818	-1.10744
24439.843	-1.12387
24441.014	-1.1404
24442.039	-1.15251
24443.211	-1.16343
24444.383	-1.17098
24445.408	-1.17564
24446.58	-1.17921
24447.752	-1.17985
24448.778	-1.17911
24449.95	-1.17705
24451.122	-1.17318
24452.295	-1.16898
24453.467	-1.16415
24454.64	-1.15835
24455.813	-1.15291
24456.986	-1.14789
24458.159	-1.14163
24459.332	-1.13562
24460.505	-1.12974
24461.678	-1.12363
24462.852	-1.11818
24464.172	-1.11154
24465.346	-1.10613
24466.52	-1.10102
24467.694	-1.09587
24469.015	-1.09041
24470.189	-1.08527
24471.363	-1.08014
24472.684	-1.07573
24473.859	-1.07262
24475.18	-1.0704
24476.355	-1.06968
24477.677	-1.07166
24478.852	-1.075
24480.174	-1.08083
24481.496	-1.08743
24482.672	-1.09604
24483.994	-1.1054
24485.317	-1.116
24486.639	-1.12738
24487.815	-1.13637
24489.138	-1.14703
24490.461	-1.15539
24491.785	-1.1626
24493.108	-1.16891
24494.432	-1.17253
24495.755	-1.17471
24497.079	-1.17532
24498.403	-1.17399
24499.727	-1.17166
24501.052	-1.16772
24502.376	-1.16338
24503.701	-1.15701
24505.173	-1.1493
24506.497	-1.14187
24507.823	-1.13432
24509.148	-1.1275
24510.62	-1.12052
24511.946	-1.11511
24513.419	-1.11005
24514.744	-1.10661
24516.07	-1.10411
24517.544	-1.10263
24518.87	-1.10156
24520.344	-1.10165
24521.818	-1.10189
24523.144	-1.1025
24524.619	-1.10383
24526.093	-1.10585
24527.42	-1.10801
24528.895	-1.11082
24530.37	-1.11449
24531.845	-1.11833
24533.173	-1.12191
24534.648	-1.12613
24536.124	-1.12923
24537.6	-1.13288
24539.076	-1.13572
24540.552	-1.13918
24542.028	-1.1433
24543.505	-1.14717
24544.982	-1.15199
24546.459	-1.15766
24547.936	-1.1635
24549.561	-1.17011
24551.038	-1.17563
24552.516	-1.18077
24553.993	-1.18528
24555.619	-1.1895
24557.097	-1.19225
24558.576	-1.19497
24560.202	-1.19754
24561.681	-1.19898
24563.16	-1.20067
24564.787	-1.20084
24566.266	-1.20117
24567.894	-1.20059
24569.521	-1.19873
24571.001	-1.19551
24572.629	-1.19207
24574.109	-1.18732
24575.738	-1.18147
24577.367	-1.17545
24578.995	-1.16966
24580.476	-1.16413
24582.106	-1.15957
24583.735	-1.15465
24585.365	-1.15105
24586.995	-1.14704
24588.625	-1.14374
24590.255	-1.14052
24591.886	-1.13748
24593.517	-1.13553
24595.148	-1.13394
24596.779	-1.13279
24598.411	-1.13178
24600.042	-1.13132
24601.674	-1.13239
24603.455	-1.1332
24605.087	-1.13564
24606.72	-1.13871
24608.352	-1.14282
24610.134	-1.14801
24611.767	-1.15499
24613.549	-1.16276
24615.183	-1.17107
24616.817	-1.17908
24618.6	-1.1878
24620.234	-1.19551
24622.017	-1.20235
24623.801	-1.20878
24625.436	-1.21359
24627.22	-1.21797
24629.004	-1.22164
24630.64	-1.22389
24632.424	-1.22592
24634.209	-1.22703
24635.994	-1.22778
24637.631	-1.22851
24639.417	-1.22862
24641.203	-1.2293
24642.989	-1.2294
24644.776	-1.23032
24646.562	-1.23093
24648.349	-1.2307
24650.137	-1.23059
24651.924	-1.22931
24653.712	-1.22722
24655.5	-1.22477
24657.288	-1.2205
24659.226	-1.21651
24661.015	-1.21159
24662.804	-1.20682
24664.593	-1.20189
24666.532	-1.19691
24668.322	-1.19296
24670.112	-1.18932
24672.052	-1.18513
24673.843	-1.18093
24675.783	-1.17739
24677.574	-1.17472
24679.515	-1.17184
24681.307	-1.17065
24683.248	-1.17034
24685.041	-1.17032
24686.983	-1.17173
24688.925	-1.17472
24690.718	-1.17798
24692.661	-1.18195
24694.604	-1.1874
24696.548	-1.19295
24698.342	-1.19875
24700.286	-1.20564
24702.231	-1.21229
24704.175	-1.21997
24706.12	-1.22689
24708.066	-1.23264
24710.011	-1.23757
24711.957	-1.24078
24713.904	-1.24392
24715.85	-1.24601
24717.797	-1.24751
24719.744	-1.24846
24721.692	-1.24836
24723.789	-1.24868
24725.737	-1.24738
24727.686	-1.24669
24729.635	-1.24512
24731.734	-1.24409
24733.683	-1.2436
24735.633	-1.24354
24737.733	-1.24404
24739.683	-1.24552
24741.784	-1.24677
24743.735	-1.24844
24745.836	-1.2493
24747.788	-1.25001
24749.89	-1.2496
24751.992	-1.24865
24753.945	-1.24674
24756.048	-1.24429
24758.151	-1.24179
24760.105	-1.23936
24762.209	-1.23677
24764.314	-1.23416
24766.418	-1.23215
24768.524	-1.22948
24770.479	-1.22722
24772.585	-1.22507
24774.691	-1.22318
24776.798	-1.22169
24778.905	-1.22051
24781.012	-1.21931
24783.12	-1.21825
24785.228	-1.21728
24787.336	-1.21704
24789.596	-1.21653
24791.705	-1.21696
24793.815	-1.2184
24795.925	-1.22043
24798.035	-1.22309
24800.296	-1.22706
24802.407	-1.23195
24804.519	-1.23646
24806.781	-1.24246
24808.893	-1.24804
24811.157	-1.25451
24813.27	-1.2603
24815.534	-1.26529
24817.647	-1.26898
24819.912	-1.27231
24822.027	-1.27384
24824.293	-1.27445
24826.408	-1.27359
24828.674	-1.27313
24830.941	-1.27227
24833.058	-1.27139
24835.325	-1.27113
24837.594	-1.27052
24839.862	-1.27101
24842.131	-1.27025
24844.401	-1.26993
24846.519	-1.27001
24848.79	-1.26982
24851.06	-1.26989
24853.331	-1.26941
24855.603	-1.26886
24857.875	-1.2683
24860.147	-1.2681
24862.42	-1.26704
24864.845	-1.26562
24867.118	-1.26466
24869.392	-1.26341
24871.667	-1.26223
24873.942	-1.26073
24876.369	-1.26016
24878.644	-1.25948
24880.921	-1.25915
24883.349	-1.25873
24885.626	-1.25882
24887.903	-1.25848
24890.333	-1.25827
24892.611	-1.25829
24895.042	-1.25905
24897.321	-1.25963
24899.753	-1.26031
24902.033	-1.2621
24904.465	-1.26327
24906.898	-1.26507
24909.18	-1.26718
24911.614	-1.26827
24914.048	-1.27017
24916.331	-1.27213
24918.766	-1.27393
24921.202	-1.27636
24923.638	-1.27869
24926.075	-1.28097
24928.512	-1.28351
24930.797	-1.28516
24933.235	-1.28763
24935.674	-1.28952
24938.113	-1.29044
24940.552	-1.29189
24942.993	-1.29248
24945.586	-1.29371
24948.027	-1.29433
24950.468	-1.29487
24952.91	-1.29564
24955.352	-1.29594
24957.796	-1.2961
24960.392	-1.29717
24962.835	-1.29705
24965.28	-1.29758
24967.878	-1.29703
24970.323	-1.29696
24972.769	-1.2972
24975.368	-1.29673
24977.815	-1.29653
24980.415	-1.29714
24982.863	-1.2961
24985.465	-1.29569
24987.913	-1.29492
24990.516	-1.2941
24992.966	-1.29347
24995.569	-1.29246
24998.173	-1.29209
25000.624	-1.29185
25003.23	-1.2913
25005.835	-1.29208
25008.441	-1.29187
25010.895	-1.2926
25013.502	-1.29329
25016.11	-1.2946
25018.718	-1.29553
25021.327	-1.29685
25023.936	-1.29831
25026.546	-1.29925
25029.157	-1.30028
25031.768	-1.30123
25034.379	-1.30251
25036.992	-1.30336
25039.604	-1.30403
25042.217	-1.30506
25044.831	-1.30566
25047.599	-1.30665
25050.214	-1.30764
25052.83	-1.3091
25055.446	-1.30986
25058.216	-1.31111
25060.833	-1.31278
25063.451	-1.31399
25066.223	-1.31631
25068.842	-1.31735
25071.615	-1.31913
25074.235	-1.32053
25076.856	-1.32133
25079.631	-1.32236
25082.407	-1.32333
25085.029	-1.32388
25087.806	-1.32463
25090.429	-1.32452
25093.207	-1.32515
25095.986	-1.32544
25098.611	-1.32528
25101.391	-1.3251
25104.172	-1.32559
25106.953	-1.32587
25109.581	-1.32558
25112.363	-1.32543
25115.146	-1.32528
25117.93	-1.32463
25120.714	-1.32442
25123.499	-1.32486
25126.285	-1.32486
25129.071	-1.3249
25131.858	-1.32474
25134.645	-1.32529
25137.433	-1.32564
25140.222	-1.32623
25143.011	-1.32702
25145.801	-1.3279
25148.746	-1.32869
25151.538	-1.32984
25154.329	-1.33073
25157.122	-1.33171
25160.07	-1.3319
25162.864	-1.33376
25165.658	-1.33446
25168.608	-1.33584
25171.404	-1.33642
25174.2	-1.33728
25177.152	-1.33823
25179.95	-1.33891
25182.903	-1.33993
25185.702	-1.34025
25188.657	-1.34179
25191.457	-1.3421
25194.413	-1.34286
25197.37	-1.34416
25200.172	-1.34526
25203.131	-1.34549
25206.09	-1.34682
25209.049	-1.3481
25211.854	-1.34899
25214.815	-1.3497
25217.777	-1.3508
25220.739	-1.35147
25223.703	-1.35208
25226.511	-1.35315
25229.475	-1.35421
25232.44	-1.35454
25235.406	-1.35531
25238.373	-1.35557
25241.34	-1.35654
25244.308	-1.35683
25247.277	-1.35709
25250.403	-1.35743
25253.373	-1.35751
25256.344	-1.35844
25259.315	-1.35825
25262.287	-1.35891
25265.26	-1.35924
25268.391	-1.35964
25271.365	-1.36026
25274.34	-1.36025
25277.473	-1.36056
25280.449	-1.3613
25283.426	-1.3619
25286.561	-1.36247
25289.54	-1.36273
25292.676	-1.36361
25295.656	-1.3646
25298.794	-1.36538
25301.775	-1.36565
25304.915	-1.36672
25307.898	-1.36748
25311.038	-1.3688
25314.18	-1.36914
